Name: Ferroaxinite Ca_2Fe^2+Al_2BSi_4O_15(OH)
Type: Mineral
Class: Silicates
Subclass: Cyclosilicates
Particle Size: 125-500um
Sample No.: CS-4A
Owner: JPL
Wavelength range: VNIR-SWIR
Origin: Mexico, Baja California Norte, Los Gavelontos.
Collected by:  Ward's
Description: 





Measurement: Hemispherical reflectance
First Column: X
Second Column: Y
X Units: Wavelength (micrometers)
Y Units: Reflectance (percent)
First X Value: 2.500
Last X Value: 0.400
Number of X Values: 2101
Additional information: cs04aa.txt

2.500  15.544482
2.499  15.517148
2.498  15.427559
2.497  15.598491
2.496  15.125725
2.495  15.663739
2.494  15.149630
2.493  15.295008
2.492  15.258981
2.491  15.337190
2.490  15.263817
2.489  15.242335
2.488  15.175512
2.487  15.322269
2.486  15.291395
2.485  15.158240
2.484  15.013953
2.483  15.203519
2.482  15.118491
2.481  15.354278
2.480  14.971616
2.479  15.330271
2.478  15.059550
2.477  15.226102
2.476  15.054228
2.475  15.212830
2.474  15.060788
2.473  15.151066
2.472  14.988774
2.471  15.099129
2.470  14.880571
2.469  15.056776
2.468  14.816483
2.467  14.932070
2.466  14.808731
2.465  14.907092
2.464  14.702228
2.463  14.730550
2.462  14.680313
2.461  14.721774
2.460  14.488694
2.459  14.512656
2.458  14.372543
2.457  14.447096
2.456  14.190088
2.455  14.312591
2.454  14.217250
2.453  14.295302
2.452  14.058856
2.451  14.041173
2.450  13.977033
2.449  13.968770
2.448  13.758732
2.447  13.792128
2.446  13.646200
2.445  13.680664
2.444  13.517546
2.443  13.601555
2.442  13.572410
2.441  13.477665
2.440  13.399802
2.439  13.401880
2.438  13.151356
2.437  13.250907
2.436  13.156262
2.435  13.048595
2.434  12.888762
2.433  13.009732
2.432  12.822709
2.431  12.846486
2.430  12.715966
2.429  12.678082
2.428  12.577404
2.427  12.534210
2.426  12.443260
2.425  12.521005
2.424  12.360476
2.423  12.317486
2.422  12.178840
2.421  12.276916
2.420  12.055845
2.419  11.960880
2.418  11.915420
2.417  11.933409
2.416  11.806816
2.415  11.790350
2.414  11.631778
2.413  11.678255
2.412  11.503678
2.411  11.456366
2.410  11.371239
2.409  11.403895
2.408  11.277890
2.407  11.242720
2.406  11.106830
2.405  11.123371
2.404  10.989387
2.403  10.912165
2.402  10.779912
2.401  10.777237
2.400  10.683307
2.399  10.676322
2.398  10.468106
2.397  10.441337
2.396  10.359204
2.395  10.314732
2.394  10.172369
2.393  10.046214
2.392   9.951490
2.391   9.895754
2.390   9.768480
2.389   9.696785
2.388   9.527938
2.387   9.400458
2.386   9.256071
2.385   9.232722
2.384   9.029283
2.383   8.897431
2.382   8.759253
2.381   8.586172
2.380   8.446371
2.379   8.367558
2.378   8.217420
2.377   8.100457
2.376   7.962541
2.375   7.859960
2.374   7.722026
2.373   7.623618
2.372   7.533638
2.371   7.456811
2.370   7.352521
2.369   7.324163
2.368   7.266067
2.367   7.211441
2.366   7.148835
2.365   7.131969
2.364   7.083701
2.363   7.137483
2.362   7.138512
2.361   7.107492
2.360   7.116771
2.359   7.142981
2.358   7.161525
2.357   7.148332
2.356   7.099837
2.355   7.131011
2.354   7.148426
2.353   7.126450
2.352   7.114738
2.351   7.083051
2.350   7.084900
2.349   7.057035
2.348   7.058557
2.347   6.955926
2.346   6.891238
2.345   6.878072
2.344   6.811361
2.343   6.764694
2.342   6.665293
2.341   6.581951
2.340   6.562233
2.339   6.441539
2.338   6.328445
2.337   6.281343
2.336   6.229001
2.335   6.048227
2.334   5.920173
2.333   5.847328
2.332   5.818995
2.331   5.663276
2.330   5.585808
2.329   5.472135
2.328   5.425016
2.327   5.372501
2.326   5.326394
2.325   5.263709
2.324   5.202779
2.323   5.079011
2.322   5.095857
2.321   5.062555
2.320   5.042707
2.319   4.966768
2.318   5.017261
2.317   4.988273
2.316   4.981462
2.315   4.985683
2.314   4.994232
2.313   4.993981
2.312   5.019270
2.311   5.021947
2.310   5.091189
2.309   5.042447
2.308   5.097182
2.307   5.030035
2.306   5.131656
2.305   5.096695
2.304   5.154786
2.303   5.120132
2.302   5.177252
2.301   5.207414
2.300   5.195103
2.299   5.130729
2.298   5.274627
2.297   5.235044
2.296   5.215733
2.295   5.189090
2.294   5.305906
2.293   5.297028
2.292   5.400866
2.291   5.402127
2.290   5.479845
2.289   5.480310
2.288   5.513875
2.287   5.442770
2.286   5.573095
2.285   5.523006
2.284   5.625884
2.283   5.621235
2.282   5.677977
2.281   5.600616
2.280   5.685939
2.279   5.652578
2.278   5.748184
2.277   5.710048
2.276   5.792332
2.275   5.676936
2.274   5.777611
2.273   5.714276
2.272   5.848813
2.271   5.744334
2.270   5.845593
2.269   5.786226
2.268   5.846152
2.267   5.768144
2.266   5.839610
2.265   5.854437
2.264   5.928950
2.263   5.848607
2.262   5.960051
2.261   5.938759
2.260   6.078245
2.259   5.930507
2.258   6.058204
2.257   6.010564
2.256   6.095714
2.255   6.030107
2.254   6.175392
2.253   6.040815
2.252   6.204268
2.251   6.045083
2.250   6.220161
2.249   6.101086
2.248   6.280271
2.247   6.080956
2.246   6.200633
2.245   6.090736
2.244   6.253094
2.243   6.138459
2.242   6.255219
2.241   6.137140
2.240   6.267590
2.239   6.164917
2.238   6.316050
2.237   6.171112
2.236   6.286225
2.235   6.141312
2.234   6.299849
2.233   6.188357
2.232   6.261479
2.231   6.154726
2.230   6.264796
2.229   6.138090
2.228   6.235423
2.227   6.142865
2.226   6.231013
2.225   6.145034
2.224   6.186571
2.223   6.094029
2.222   6.224336
2.221   6.137491
2.220   6.184763
2.219   6.128147
2.218   6.215261
2.217   6.074038
2.216   6.214081
2.215   6.049922
2.214   6.186028
2.213   5.979083
2.212   6.245070
2.211   5.868492
2.210   6.246162
2.209   6.042842
2.208   6.192321
2.207   5.998342
2.206   6.113797
2.205   6.010061
2.204   6.197140
2.203   5.974676
2.202   6.128464
2.201   5.991865
2.200   6.169429
2.199   6.031863
2.198   6.066487
2.197   5.951610
2.196   6.108744
2.195   5.976174
2.194   6.045762
2.193   5.920223
2.192   6.056638
2.191   5.913616
2.190   6.015760
2.189   5.953669
2.188   5.999916
2.187   5.970268
2.186   6.027876
2.185   5.904222
2.184   6.020298
2.183   5.900131
2.182   6.005696
2.181   5.896970
2.180   6.017685
2.179   5.919247
2.178   5.950124
2.177   5.827820
2.176   5.873259
2.175   5.858310
2.174   5.969013
2.173   5.828430
2.172   5.962406
2.171   5.849229
2.170   5.926631
2.169   5.876016
2.168   5.907310
2.167   5.829817
2.166   5.868319
2.165   5.813066
2.164   5.953762
2.163   5.870434
2.162   5.937170
2.161   5.829045
2.160   5.908058
2.159   5.814399
2.158   5.922962
2.157   5.770244
2.156   5.793790
2.155   5.778215
2.154   5.797302
2.153   5.846632
2.152   5.812690
2.151   5.777106
2.150   5.910998
2.149   5.787821
2.148   5.790643
2.147   5.793446
2.146   5.805550
2.145   5.713853
2.144   5.796529
2.143   5.786220
2.142   5.729827
2.141   5.705495
2.140   5.775175
2.139   5.740581
2.138   5.821394
2.137   5.706999
2.136   5.742479
2.135   5.706580
2.134   5.739505
2.133   5.741008
2.132   5.783704
2.131   5.697579
2.130   5.801881
2.129   5.691297
2.128   5.721568
2.127   5.709116
2.126   5.691513
2.125   5.736339
2.124   5.748599
2.123   5.660980
2.122   5.687137
2.121   5.642415
2.120   5.668592
2.119   5.622949
2.118   5.719484
2.117   5.599526
2.116   5.645783
2.115   5.641204
2.114   5.676380
2.113   5.599599
2.112   5.648283
2.111   5.573966
2.110   5.639733
2.109   5.635652
2.108   5.623262
2.107   5.619668
2.106   5.630055
2.105   5.594380
2.104   5.601150
2.103   5.599448
2.102   5.602121
2.101   5.582496
2.100   5.636214
2.099   5.536819
2.098   5.563262
2.097   5.579243
2.096   5.578322
2.095   5.543859
2.094   5.564510
2.093   5.600663
2.092   5.574818
2.091   5.541118
2.090   5.566448
2.089   5.556739
2.088   5.595315
2.087   5.556394
2.086   5.581504
2.085   5.591753
2.084   5.559980
2.083   5.601734
2.082   5.572116
2.081   5.475320
2.080   5.553815
2.079   5.560167
2.078   5.564066
2.077   5.564067
2.076   5.589248
2.075   5.600394
2.074   5.561462
2.073   5.580115
2.072   5.615645
2.071   5.613238
2.070   5.598638
2.069   5.575284
2.068   5.628784
2.067   5.630447
2.066   5.525049
2.065   5.545440
2.064   5.583007
2.063   5.570258
2.062   5.615548
2.061   5.672188
2.060   5.583922
2.059   5.606834
2.058   5.588593
2.057   5.620733
2.056   5.616068
2.055   5.600765
2.054   5.609139
2.053   5.622496
2.052   5.647454
2.051   5.672210
2.050   5.665315
2.049   5.662744
2.048   5.609168
2.047   5.623190
2.046   5.616573
2.045   5.614311
2.044   5.587236
2.043   5.629432
2.042   5.693652
2.041   5.678322
2.040   5.597753
2.039   5.602430
2.038   5.607939
2.037   5.721011
2.036   5.660661
2.035   5.653382
2.034   5.619270
2.033   5.691878
2.032   5.681798
2.031   5.673119
2.030   5.621786
2.029   5.715626
2.028   5.701425
2.027   5.704486
2.026   5.718721
2.025   5.702816
2.024   5.651715
2.023   5.733212
2.022   5.691898
2.021   5.754221
2.020   5.706311
2.019   5.741514
2.018   5.674858
2.017   5.714840
2.016   5.753222
2.015   5.718628
2.014   5.739634
2.013   5.735287
2.012   5.644678
2.011   5.748446
2.010   5.739965
2.009   5.729379
2.008   5.689652
2.007   5.772897
2.006   5.727792
2.005   5.748358
2.004   5.745733
2.003   5.870689
2.002   5.762927
2.001   5.776583
2.000   5.799926
1.999   5.814016
1.998   5.768530
1.997   5.801891
1.996   5.740956
1.995   5.852796
1.994   5.784593
1.993   5.848004
1.992   5.829568
1.991   5.924851
1.990   5.788834
1.989   5.887218
1.988   5.840727
1.987   5.878579
1.986   5.790783
1.985   5.846376
1.984   5.733996
1.983   5.834632
1.982   5.876876
1.981   5.938658
1.980   5.774912
1.979   5.831138
1.978   5.791317
1.977   5.912612
1.976   5.841273
1.975   5.851245
1.974   5.873627
1.973   5.931285
1.972   5.854222
1.971   5.942431
1.970   5.846387
1.969   5.918103
1.968   5.822845
1.967   5.954320
1.966   5.866106
1.965   5.959163
1.964   5.845111
1.963   5.989757
1.962   5.962469
1.961   5.944728
1.960   5.919818
1.959   5.995554
1.958   5.892387
1.957   6.009077
1.956   5.854929
1.955   5.965389
1.954   5.960884
1.953   6.015647
1.952   5.968599
1.951   6.087158
1.950   5.937508
1.949   6.062381
1.948   5.950571
1.947   6.070953
1.946   5.957076
1.945   6.058246
1.944   6.022278
1.943   6.073427
1.942   5.963962
1.941   6.120666
1.940   6.084788
1.939   6.091895
1.938   5.981604
1.937   6.100676
1.936   6.018731
1.935   6.071613
1.934   5.973469
1.933   6.164850
1.932   6.101136
1.931   6.232823
1.930   5.969777
1.929   6.166651
1.928   6.124882
1.927   6.243430
1.926   5.946438
1.925   6.253455
1.924   6.043268
1.923   6.202404
1.922   6.130108
1.921   6.187727
1.920   6.134603
1.919   6.226758
1.918   6.087388
1.917   6.278718
1.916   6.235985
1.915   6.307951
1.914   6.231027
1.913   6.291319
1.912   6.229660
1.911   6.346632
1.910   6.284001
1.909   6.426409
1.908   6.255028
1.907   6.415688
1.906   6.333787
1.905   6.391534
1.904   6.302641
1.903   6.420735
1.902   6.360001
1.901   6.474967
1.900   6.359498
1.899   6.550215
1.898   6.385259
1.897   6.550607
1.896   6.431908
1.895   6.609544
1.894   6.478542
1.893   6.654919
1.892   6.587662
1.891   6.694014
1.890   6.529010
1.889   6.695558
1.888   6.585996
1.887   6.794973
1.886   6.692630
1.885   6.713414
1.884   6.705797
1.883   6.811102
1.882   6.776364
1.881   6.815518
1.880   6.780509
1.879   6.843956
1.878   6.900421
1.877   6.881370
1.876   6.774862
1.875   6.914057
1.874   6.841358
1.873   6.957625
1.872   6.791459
1.871   6.945414
1.870   6.843599
1.869   6.914305
1.868   6.890792
1.867   7.029818
1.866   6.943294
1.865   7.084654
1.864   7.059857
1.863   7.166898
1.862   7.158031
1.861   7.209026
1.860   7.138359
1.859   7.217474
1.858   7.192077
1.857   7.248799
1.856   7.178082
1.855   7.350710
1.854   7.231550
1.853   7.319317
1.852   7.241540
1.851   7.383450
1.850   7.368412
1.849   7.385474
1.848   7.362047
1.847   7.364000
1.846   7.386003
1.845   7.487291
1.844   7.416385
1.843   7.530701
1.842   7.474468
1.841   7.564026
1.840   7.522394
1.839   7.581214
1.838   7.552793
1.837   7.573960
1.836   7.568092
1.835   7.672104
1.834   7.676359
1.833   7.746361
1.832   7.756384
1.831   7.765500
1.830   7.692926
1.829   7.795374
1.828   7.789874
1.827   7.881465
1.826   7.910565
1.825   7.949284
1.824   7.949949
1.823   7.950017
1.822   8.000124
1.821   8.084074
1.820   8.041941
1.819   8.056078
1.818   8.116971
1.817   8.156081
1.816   8.107186
1.815   8.171995
1.814   8.192166
1.813   8.236294
1.812   8.220607
1.811   8.247664
1.810   8.300029
1.809   8.375918
1.808   8.382568
1.807   8.391494
1.806   8.354282
1.805   8.403356
1.804   8.420995
1.803   8.456809
1.802   8.506313
1.801   8.537361
1.800   8.566587
1.799   8.638286
1.798   8.646286
1.797   8.698471
1.796   8.701774
1.795   8.714056
1.794   8.754137
1.793   8.808000
1.792   8.782106
1.791   8.770153
1.790   8.849819
1.789   8.909186
1.788   8.894786
1.787   8.959637
1.786   9.000811
1.785   8.974620
1.784   8.988688
1.783   9.086669
1.782   9.103527
1.781   9.092445
1.780   9.136313
1.779   9.199673
1.778   9.262702
1.777   9.253453
1.776   9.294927
1.775   9.280201
1.774   9.304278
1.773   9.391389
1.772   9.473330
1.771   9.452150
1.770   9.491279
1.769   9.502163
1.768   9.523027
1.767   9.577869
1.766   9.636700
1.765   9.689104
1.764   9.740612
1.763   9.720120
1.762   9.777904
1.761   9.815510
1.760   9.872892
1.759   9.935310
1.758   9.932489
1.757   9.878450
1.756   9.961489
1.755  10.033456
1.754  10.096478
1.753  10.112875
1.752  10.174263
1.751  10.158683
1.750  10.210316
1.749  10.217902
1.748  10.282055
1.747  10.331688
1.746  10.338559
1.745  10.389851
1.744  10.500725
1.743  10.492456
1.742  10.546916
1.741  10.579575
1.740  10.670741
1.739  10.682119
1.738  10.675369
1.737  10.720048
1.736  10.846899
1.735  10.822218
1.734  10.885760
1.733  10.937919
1.732  11.024739
1.731  11.026216
1.730  11.109886
1.729  11.152259
1.728  11.189416
1.727  11.185560
1.726  11.285849
1.725  11.299427
1.724  11.358418
1.723  11.363814
1.722  11.439514
1.721  11.437470
1.720  11.590670
1.719  11.590023
1.718  11.667412
1.717  11.691956
1.716  11.731187
1.715  11.760910
1.714  11.876969
1.713  11.944873
1.712  11.971625
1.711  11.963354
1.710  12.082522
1.709  12.058868
1.708  12.165124
1.707  12.196386
1.706  12.285429
1.705  12.298802
1.704  12.421297
1.703  12.371232
1.702  12.543347
1.701  12.488849
1.700  12.546309
1.699  12.633686
1.698  12.698869
1.697  12.706493
1.696  12.859343
1.695  12.807675
1.694  12.958929
1.693  12.900690
1.692  13.048086
1.691  13.014900
1.690  13.182257
1.689  13.203566
1.688  13.380349
1.687  13.311385
1.686  13.447489
1.685  13.402317
1.684  13.523648
1.683  13.478056
1.682  13.625695
1.681  13.617521
1.680  13.731016
1.679  13.734077
1.678  13.888359
1.677  13.831760
1.676  13.925855
1.675  13.960807
1.674  14.129441
1.673  14.116892
1.672  14.220108
1.671  14.300589
1.670  14.354685
1.669  14.577421
1.668  14.421810
1.667  14.571309
1.666  14.668391
1.665  14.673747
1.664  14.829271
1.663  14.730730
1.662  14.931461
1.661  14.967265
1.660  15.084758
1.659  15.067500
1.658  15.231491
1.657  15.203566
1.656  15.380075
1.655  15.343456
1.654  15.527054
1.653  15.477285
1.652  15.659568
1.651  15.593166
1.650  15.736032
1.649  15.743234
1.648  15.875726
1.647  15.872514
1.646  16.011299
1.645  16.050731
1.644  16.237172
1.643  16.132477
1.642  16.454680
1.641  16.164422
1.640  16.609987
1.639  16.417257
1.638  16.677410
1.637  16.605468
1.636  16.767651
1.635  16.794192
1.634  16.927288
1.633  16.874581
1.632  17.094217
1.631  17.067534
1.630  17.213435
1.629  17.264571
1.628  17.326725
1.627  17.361915
1.626  17.518357
1.625  17.491286
1.624  17.599335
1.623  17.641871
1.622  17.810007
1.621  17.832981
1.620  17.993017
1.619  17.898324
1.618  18.095151
1.617  18.086434
1.616  18.241022
1.615  18.289047
1.614  18.382225
1.613  18.418535
1.612  18.531144
1.611  18.613031
1.610  18.701336
1.609  18.696034
1.608  18.896075
1.607  18.874582
1.606  19.013912
1.605  19.073216
1.604  19.240116
1.603  19.164064
1.602  19.319385
1.601  19.338102
1.600  19.404629
1.599  19.496979
1.598  19.581104
1.597  19.563682
1.596  19.705415
1.595  19.785776
1.594  19.886661
1.593  19.875714
1.592  19.977524
1.591  20.051852
1.590  20.220991
1.589  20.178086
1.588  20.249535
1.587  20.291333
1.586  20.390094
1.585  20.428720
1.584  20.547663
1.583  20.573979
1.582  20.690988
1.581  20.716817
1.580  20.829270
1.579  20.868789
1.578  20.952659
1.577  20.922162
1.576  21.070673
1.575  21.110341
1.574  21.162287
1.573  21.135202
1.572  21.255572
1.571  21.255178
1.570  21.316185
1.569  21.301273
1.568  21.389236
1.567  21.332576
1.566  21.470510
1.565  21.450702
1.564  21.539595
1.563  21.520304
1.562  21.553649
1.561  21.484667
1.560  21.616305
1.559  21.671698
1.558  21.680789
1.557  21.608718
1.556  21.673496
1.555  21.704008
1.554  21.764474
1.553  21.791205
1.552  21.804294
1.551  21.825011
1.550  21.896684
1.549  21.894780
1.548  21.923997
1.547  21.910900
1.546  21.986299
1.545  22.043419
1.544  22.092711
1.543  22.085719
1.542  22.171510
1.541  22.199935
1.540  22.272208
1.539  22.294311
1.538  22.348838
1.537  22.389319
1.536  22.501426
1.535  22.505835
1.534  22.555731
1.533  22.645316
1.532  22.656872
1.531  22.671243
1.530  22.744318
1.529  22.789058
1.528  22.887045
1.527  22.911663
1.526  22.990733
1.525  22.972338
1.524  23.063701
1.523  23.166640
1.522  23.133104
1.521  23.158361
1.520  23.258651
1.519  23.279146
1.518  23.336328
1.517  23.358526
1.516  23.404275
1.515  23.478060
1.514  23.547665
1.513  23.540636
1.512  23.577087
1.511  23.626905
1.510  23.616666
1.509  23.579579
1.508  23.586382
1.507  23.621067
1.506  23.637419
1.505  23.669639
1.504  23.679365
1.503  23.665166
1.502  23.646839
1.501  23.647103
1.500  23.636622
1.499  23.603287
1.498  23.586507
1.497  23.587409
1.496  23.555621
1.495  23.511661
1.494  23.449437
1.493  23.417241
1.492  23.440559
1.491  23.388153
1.490  23.330626
1.489  23.320185
1.488  23.204059
1.487  23.137700
1.486  23.065099
1.485  23.016812
1.484  22.970672
1.483  22.865313
1.482  22.755451
1.481  22.747895
1.480  22.647734
1.479  22.537581
1.478  22.461437
1.477  22.349275
1.476  22.248253
1.475  22.164075
1.474  22.075575
1.473  21.939386
1.472  21.821852
1.471  21.782022
1.470  21.630005
1.469  21.505223
1.468  21.396512
1.467  21.289643
1.466  21.141865
1.465  21.017266
1.464  20.889617
1.463  20.724511
1.462  20.530989
1.461  20.450254
1.460  20.298760
1.459  20.117090
1.458  19.984682
1.457  19.887351
1.456  19.725980
1.455  19.612645
1.454  19.432295
1.453  19.339400
1.452  19.137772
1.451  18.978846
1.450  18.789942
1.449  18.643146
1.448  18.498125
1.447  18.380131
1.446  18.202361
1.445  18.062700
1.444  17.828134
1.443  17.720102
1.442  17.571021
1.441  17.451504
1.440  17.235440
1.439  17.081965
1.438  16.901089
1.437  16.780378
1.436  16.517347
1.435  16.424561
1.434  16.262926
1.433  16.089665
1.432  15.888390
1.431  15.751626
1.430  15.565726
1.429  15.487534
1.428  15.252824
1.427  15.135931
1.426  14.944777
1.425  14.752576
1.424  14.557582
1.423  14.534511
1.422  14.282107
1.421  14.169281
1.420  14.010384
1.419  13.805677
1.418  13.586553
1.417  13.571692
1.416  13.335884
1.415  13.267186
1.414  13.095245
1.413  12.963789
1.412  12.778890
1.411  12.717464
1.410  12.507367
1.409  12.418684
1.408  12.198964
1.407  12.155747
1.406  11.875593
1.405  11.822329
1.404  11.689100
1.403  11.676508
1.402  11.438614
1.401  11.331385
1.400  11.032008
1.399  11.049824
1.398  10.953126
1.397  10.852651
1.396  10.660313
1.395  10.625182
1.394  10.385629
1.393  10.344522
1.392  10.200933
1.391  10.171414
1.390   9.989613
1.389  10.007945
1.388   9.659251
1.387   9.673904
1.386   9.552988
1.385   9.629177
1.384   9.275169
1.383   9.228528
1.382   8.936424
1.381   9.023047
1.380   8.835541
1.379   8.906498
1.378   8.731768
1.377   8.641390
1.376   8.562023
1.375   8.532031
1.374   8.372886
1.373   8.425561
1.372   8.230122
1.371   8.140490
1.370   8.003500
1.369   8.037539
1.368   7.801109
1.367   7.874808
1.366   7.688216
1.365   7.756957
1.364   7.553610
1.363   7.595658
1.362   7.327705
1.361   7.435162
1.360   7.198562
1.359   7.343475
1.358   7.197742
1.357   7.231416
1.356   7.115408
1.355   6.850162
1.354   6.965890
1.353   6.918510
1.352   6.725682
1.351   6.835959
1.350   6.644269
1.349   6.671097
1.348   6.530439
1.347   6.571645
1.346   6.436521
1.345   6.613063
1.344   6.386424
1.343   6.468973
1.342   6.272084
1.341   6.294120
1.340   6.189894
1.339   6.304937
1.338   6.049025
1.337   6.185198
1.336   5.979465
1.335   6.009512
1.334   5.987920
1.333   5.989638
1.332   5.894466
1.331   5.841939
1.330   5.756879
1.329   5.861288
1.328   5.731375
1.327   5.793568
1.326   5.633062
1.325   5.698182
1.324   5.549287
1.323   5.701344
1.322   5.451843
1.321   5.581748
1.320   5.464134
1.319   5.468643
1.318   5.388644
1.317   5.465752
1.316   5.395310
1.315   5.405270
1.314   5.320991
1.313   5.334238
1.312   5.207018
1.311   5.277841
1.310   5.208315
1.309   5.252728
1.308   5.110558
1.307   5.185190
1.306   5.075541
1.305   5.105813
1.304   5.034512
1.303   5.086548
1.302   5.009313
1.301   5.023092
1.300   4.922711
1.299   4.992991
1.298   4.995901
1.297   4.988165
1.296   4.981793
1.295   4.988055
1.294   4.905285
1.293   4.980817
1.292   4.841538
1.291   4.924544
1.290   4.746450
1.289   4.851026
1.288   4.823767
1.287   4.797730
1.286   4.702918
1.285   4.732503
1.284   4.688427
1.283   4.722176
1.282   4.682457
1.281   4.737868
1.280   4.656978
1.279   4.711726
1.278   4.622993
1.277   4.658714
1.276   4.577252
1.275   4.583633
1.274   4.524921
1.273   4.552579
1.272   4.575034
1.271   4.572851
1.270   4.475188
1.269   4.511306
1.268   4.434659
1.267   4.524854
1.266   4.511023
1.265   4.508789
1.264   4.474176
1.263   4.491158
1.262   4.420136
1.261   4.467974
1.260   4.452032
1.259   4.446007
1.258   4.374173
1.257   4.389655
1.256   4.371288
1.255   4.447358
1.254   4.442690
1.253   4.435065
1.252   4.360724
1.251   4.408211
1.250   4.365436
1.249   4.337788
1.248   4.321538
1.247   4.382610
1.246   4.348389
1.245   4.372924
1.244   4.278423
1.243   4.269444
1.242   4.257920
1.241   4.302063
1.240   4.283337
1.239   4.297171
1.238   4.268462
1.237   4.307478
1.236   4.311792
1.235   4.298010
1.234   4.207626
1.233   4.249602
1.232   4.211439
1.231   4.200723
1.230   4.213109
1.229   4.220935
1.228   4.173708
1.227   4.232195
1.226   4.193060
1.225   4.176890
1.224   4.199946
1.223   4.137943
1.222   4.127892
1.221   4.165250
1.220   4.164455
1.219   4.197513
1.218   4.207761
1.217   4.148169
1.216   4.090859
1.215   4.126892
1.214   4.144175
1.213   4.161758
1.212   4.171132
1.211   4.139570
1.210   4.137594
1.209   4.119102
1.208   4.115901
1.207   4.090705
1.206   4.144742
1.205   4.115918
1.204   4.072233
1.203   4.084038
1.202   4.126452
1.201   4.090880
1.200   4.074329
1.199   4.020968
1.198   4.033478
1.197   4.102478
1.196   4.119198
1.195   4.085988
1.194   4.129995
1.193   4.079870
1.192   4.085557
1.191   4.049986
1.190   4.085659
1.189   4.121563
1.188   4.004220
1.187   4.045238
1.186   4.152467
1.185   4.083388
1.184   4.121599
1.183   4.072228
1.182   4.078401
1.181   4.060024
1.180   4.054193
1.179   4.088395
1.178   4.099823
1.177   4.061234
1.176   4.075275
1.175   4.044048
1.174   4.088903
1.173   4.093413
1.172   4.110246
1.171   4.023748
1.170   4.062289
1.169   4.032619
1.168   4.109314
1.167   4.058447
1.166   4.112626
1.165   4.037440
1.164   4.051241
1.163   3.980439
1.162   4.036915
1.161   4.017849
1.160   4.092357
1.159   4.085259
1.158   4.089921
1.157   4.080453
1.156   4.082400
1.155   4.002998
1.154   4.087613
1.153   4.048050
1.152   4.068358
1.151   4.035640
1.150   4.113286
1.149   4.072367
1.148   4.140226
1.147   4.095957
1.146   4.136310
1.145   4.100603
1.144   4.110702
1.143   4.047705
1.142   4.166211
1.141   4.071513
1.140   4.172764
1.139   4.153112
1.138   4.168194
1.137   4.145882
1.136   4.179363
1.135   4.064246
1.134   4.106345
1.133   4.036897
1.132   4.243176
1.131   4.140760
1.130   4.249314
1.129   4.142000
1.128   4.180968
1.127   4.080785
1.126   4.201803
1.125   4.056250
1.124   4.204936
1.123   4.135328
1.122   4.209257
1.121   4.144267
1.120   4.216708
1.119   4.216993
1.118   4.176416
1.117   4.230684
1.116   4.221815
1.115   4.203878
1.114   4.254858
1.113   4.173512
1.112   4.324330
1.111   4.211987
1.110   4.270336
1.109   4.289258
1.108   4.271492
1.107   4.199237
1.106   4.258091
1.105   4.229426
1.104   4.315065
1.103   4.198773
1.102   4.329776
1.101   4.273651
1.100   4.353579
1.099   4.285740
1.098   4.364544
1.097   4.278676
1.096   4.377286
1.095   4.321464
1.094   4.343911
1.093   4.363038
1.092   4.329584
1.091   4.372229
1.090   4.475479
1.089   4.360341
1.088   4.451552
1.087   4.359171
1.086   4.533292
1.085   4.414866
1.084   4.546838
1.083   4.290118
1.082   4.477534
1.081   4.487069
1.080   4.547938
1.079   4.404269
1.078   4.561308
1.077   4.473512
1.076   4.565986
1.075   4.405070
1.074   4.559931
1.073   4.526915
1.072   4.661554
1.071   4.670138
1.070   4.487632
1.069   4.629446
1.068   4.789664
1.067   4.600450
1.066   4.767577
1.065   4.607180
1.064   4.752541
1.063   4.625159
1.062   4.809196
1.061   4.691248
1.060   4.838718
1.059   4.807999
1.058   4.918653
1.057   4.826646
1.056   4.793738
1.055   4.738558
1.054   4.911403
1.053   4.827964
1.052   4.996960
1.051   4.840269
1.050   4.973796
1.049   4.880520
1.048   4.938756
1.047   4.913010
1.046   5.101536
1.045   4.920888
1.044   5.108898
1.043   5.012669
1.042   5.090941
1.041   5.081510
1.040   5.144823
1.039   5.108698
1.038   5.133138
1.037   5.157159
1.036   5.219420
1.035   5.210070
1.034   5.292616
1.033   5.281009
1.032   5.257453
1.031   5.302257
1.030   5.383579
1.029   5.343829
1.028   5.409051
1.027   5.351640
1.026   5.482258
1.025   5.473834
1.024   5.488160
1.023   5.462973
1.022   5.623358
1.021   5.656189
1.020   5.643620
1.019   5.602488
1.018   5.709194
1.017   5.703121
1.016   5.818249
1.015   5.763970
1.014   5.794899
1.013   5.839423
1.012   5.949967
1.011   5.879274
1.010   5.962690
1.009   5.977198
1.008   6.055628
1.007   6.038472
1.006   6.102002
1.005   6.093043
1.004   6.248775
1.003   6.207832
1.002   6.263688
1.001   6.248894
1.000   6.464252
0.999   6.399562
0.998   6.458232
0.997   6.473784
0.996   6.557361
0.995   6.525571
0.994   6.657214
0.993   6.671536
0.992   6.782976
0.991   6.741553
0.990   6.823500
0.989   6.898775
0.988   6.983454
0.987   6.934967
0.986   7.055285
0.985   7.059385
0.984   7.185992
0.983   7.239806
0.982   7.381368
0.981   7.341631
0.980   7.427031
0.979   7.486807
0.978   7.600210
0.977   7.618206
0.976   7.751623
0.975   7.755267
0.974   7.858150
0.973   7.923503
0.972   8.010032
0.971   8.058349
0.970   8.155039
0.969   8.204781
0.968   8.327859
0.967   8.375337
0.966   8.501331
0.965   8.564750
0.964   8.684915
0.963   8.748396
0.962   8.855289
0.961   8.923535
0.960   9.075088
0.959   9.165372
0.958   9.278349
0.957   9.360734
0.956   9.509733
0.955   9.657973
0.954   9.774806
0.953   9.810584
0.952   9.927376
0.951   9.975032
0.950  10.189334
0.949  10.326171
0.948  10.436315
0.947  10.487919
0.946  10.602482
0.945  10.732558
0.944  10.920714
0.943  11.069048
0.942  11.203171
0.941  11.362631
0.940  11.519456
0.939  11.656072
0.938  11.788702
0.937  11.956981
0.936  12.112259
0.935  12.235444
0.934  12.406883
0.933  12.560760
0.932  12.751731
0.931  12.858569
0.930  13.027963
0.929  13.282294
0.928  13.417412
0.927  13.580316
0.926  13.762465
0.925  13.993352
0.924  14.196605
0.923  14.394242
0.922  14.592875
0.921  14.714520
0.920  14.933718
0.919  15.189766
0.918  15.401596
0.917  15.634688
0.916  15.783464
0.915  15.987473
0.914  16.215117
0.913  16.440829
0.912  16.685986
0.911  16.942570
0.910  17.119879
0.909  17.381116
0.908  17.645386
0.907  17.904283
0.906  18.117090
0.905  18.414077
0.904  18.599684
0.903  18.868959
0.902  19.164616
0.901  19.414436
0.900  19.678081
0.899  19.929469
0.898  20.197120
0.897  20.493575
0.896  20.793389
0.895  21.111466
0.894  21.303546
0.893  21.607684
0.892  21.860744
0.891  22.160078
0.890  22.392983
0.889  22.766513
0.888  23.018605
0.887  23.293541
0.886  23.588094
0.885  23.878589
0.884  24.178826
0.883  24.490627
0.882  24.750543
0.881  25.117820
0.880  25.384039
0.879  25.753271
0.878  26.058641
0.877  26.370466
0.876  26.612241
0.875  26.937276
0.874  27.164507
0.873  27.521252
0.872  27.822053
0.871  28.090228
0.870  28.390940
0.869  28.720541
0.868  28.999607
0.867  29.304318
0.866  29.530809
0.865  29.886045
0.864  30.197423
0.863  30.551642
0.862  30.805031
0.861  31.151672
0.860  32.233552
0.859  32.755294
0.858  33.062658
0.857  33.358191
0.856  33.694050
0.855  34.004753
0.854  34.342744
0.853  34.604612
0.852  34.890553
0.851  35.180962
0.850  35.461207
0.849  35.731161
0.848  36.044692
0.847  36.299919
0.846  36.558510
0.845  36.849289
0.844  37.101015
0.843  37.366808
0.842  37.603027
0.841  37.808205
0.840  38.045116
0.839  38.304228
0.838  38.555484
0.837  38.765302
0.836  39.013320
0.835  39.245498
0.834  39.436361
0.833  39.671129
0.832  39.863850
0.831  40.051163
0.830  40.231595
0.829  40.395287
0.828  40.591894
0.827  40.728815
0.826  40.848585
0.825  41.030947
0.824  41.202260
0.823  41.353123
0.822  41.472276
0.821  41.606333
0.820  41.736749
0.819  41.846246
0.818  41.957672
0.817  42.085705
0.816  42.186131
0.815  42.287625
0.814  42.377177
0.813  42.450145
0.812  42.525806
0.811  42.619669
0.810  42.667093
0.809  42.701111
0.808  42.757457
0.807  42.813075
0.806  42.877327
0.805  42.884648
0.804  42.929945
0.803  42.952863
0.802  42.947520
0.801  42.977690
0.800  42.984147
0.799  42.953198
0.798  42.971294
0.797  42.953493
0.796  42.936564
0.795  42.903894
0.794  42.872196
0.793  42.852679
0.792  42.803029
0.791  42.789243
0.790  42.764336
0.789  42.669875
0.788  42.628304
0.787  42.590495
0.786  42.541657
0.785  42.462843
0.784  42.418289
0.783  42.317910
0.782  42.270714
0.781  42.213992
0.780  42.128844
0.779  42.019328
0.778  41.913709
0.777  41.823618
0.776  41.743454
0.775  41.657066
0.774  41.533656
0.773  41.440259
0.772  41.323540
0.771  41.226692
0.770  41.150922
0.769  41.011651
0.768  40.911793
0.767  40.792009
0.766  40.656373
0.765  40.564507
0.764  40.431679
0.763  40.314349
0.762  40.218832
0.761  40.057234
0.760  39.946949
0.759  39.814140
0.758  39.662929
0.757  39.545563
0.756  39.403480
0.755  39.286371
0.754  39.156641
0.753  39.005263
0.752  38.875056
0.751  38.724437
0.750  38.581373
0.749  38.438100
0.748  38.340874
0.747  38.198708
0.746  38.053630
0.745  37.917379
0.744  37.772563
0.743  37.625240
0.742  37.474359
0.741  37.356710
0.740  37.211042
0.739  37.044026
0.738  36.895102
0.737  36.747629
0.736  36.592090
0.735  36.440821
0.734  36.308609
0.733  36.147351
0.732  36.001615
0.731  35.845642
0.730  35.706402
0.729  35.540530
0.728  35.412893
0.727  35.256968
0.726  35.094444
0.725  34.952585
0.724  34.798220
0.723  34.641537
0.722  34.486298
0.721  34.337931
0.720  34.228163
0.719  34.084228
0.718  33.939084
0.717  33.783157
0.716  33.639634
0.715  33.477945
0.714  33.323441
0.713  33.156344
0.712  33.026247
0.711  32.873648
0.710  32.725345
0.709  32.568007
0.708  32.417659
0.707  32.264067
0.706  32.111412
0.705  31.958960
0.704  31.792963
0.703  31.638993
0.702  31.494287
0.701  31.347289
0.700  31.201954
0.699  31.055234
0.698  30.903170
0.697  30.738880
0.696  30.598532
0.695  30.453033
0.694  30.304802
0.693  30.162871
0.692  30.002733
0.691  29.857746
0.690  29.708368
0.689  29.549099
0.688  29.399890
0.687  29.265714
0.686  29.119337
0.685  28.976077
0.684  28.825751
0.683  28.672359
0.682  28.536833
0.681  28.396447
0.680  28.247945
0.679  28.109166
0.678  27.969096
0.677  27.826124
0.676  27.691884
0.675  27.555504
0.674  27.411184
0.673  27.271533
0.672  27.131570
0.671  26.997547
0.670  26.864377
0.669  26.730699
0.668  26.595679
0.667  26.464190
0.666  26.335567
0.665  26.202739
0.664  26.075085
0.663  25.941851
0.662  25.813777
0.661  25.686252
0.660  25.560775
0.659  25.440591
0.658  25.315799
0.657  25.191614
0.656  25.065793
0.655  24.949606
0.654  24.829768
0.653  24.703241
0.652  24.582224
0.651  24.470902
0.650  24.351914
0.649  24.231917
0.648  24.114286
0.647  23.996321
0.646  23.887384
0.645  23.778745
0.644  23.663551
0.643  23.547331
0.642  23.435833
0.641  23.328904
0.640  23.227102
0.639  23.120622
0.638  23.006714
0.637  22.892205
0.636  22.784894
0.635  22.680197
0.634  22.576696
0.633  22.474599
0.632  22.372183
0.631  22.270704
0.630  22.168414
0.629  22.064780
0.628  21.961443
0.627  21.860335
0.626  21.759151
0.625  21.659777
0.624  21.561584
0.623  21.467477
0.622  21.371661
0.621  21.269812
0.620  21.168555
0.619  21.071319
0.618  20.980473
0.617  20.885417
0.616  20.785340
0.615  20.692135
0.614  20.597777
0.613  20.504820
0.612  20.408364
0.611  20.313806
0.610  20.218056
0.609  20.122258
0.608  20.033283
0.607  19.938696
0.606  19.846585
0.605  19.753685
0.604  19.664020
0.603  19.566072
0.602  19.477476
0.601  19.392211
0.600  19.303635
0.599  19.217680
0.598  19.133176
0.597  19.050247
0.596  18.970971
0.595  18.893385
0.594  18.805769
0.593  18.718973
0.592  18.637711
0.591  18.551564
0.590  18.473394
0.589  18.396615
0.588  18.317199
0.587  18.236925
0.586  18.162798
0.585  18.090049
0.584  18.018805
0.583  17.944827
0.582  17.872524
0.581  17.801407
0.580  17.730838
0.579  17.664694
0.578  17.598232
0.577  17.532764
0.576  17.464156
0.575  17.424895
0.574  17.377783
0.573  17.314563
0.572  17.252145
0.571  17.190439
0.570  17.134256
0.569  17.076241
0.568  17.019887
0.567  16.964458
0.566  16.909171
0.565  16.851251
0.564  16.801667
0.563  16.747190
0.562  16.695612
0.561  16.629812
0.560  16.567372
0.559  16.516542
0.558  16.472494
0.557  16.423337
0.556  16.379201
0.555  16.334774
0.554  16.291559
0.553  16.250053
0.552  16.210920
0.551  16.174734
0.550  16.138462
0.549  16.103177
0.548  16.067721
0.547  16.034411
0.546  16.010354
0.545  15.983607
0.544  15.964120
0.543  15.936256
0.542  15.915283
0.541  15.892847
0.540  15.874322
0.539  15.858505
0.538  15.841783
0.537  15.825723
0.536  15.812329
0.535  15.802017
0.534  15.786809
0.533  15.782338
0.532  15.773601
0.531  15.763857
0.530  15.759330
0.529  15.754003
0.528  15.755837
0.527  15.751733
0.526  15.749537
0.525  15.748025
0.524  15.748158
0.523  15.743805
0.522  15.740170
0.521  15.728073
0.520  15.721940
0.519  15.705689
0.518  15.687582
0.517  15.670529
0.516  15.651245
0.515  15.633925
0.514  15.620301
0.513  15.623351
0.512  15.628379
0.511  15.640485
0.510  15.664460
0.509  15.687196
0.508  15.718943
0.507  15.743085
0.506  15.764354
0.505  15.775188
0.504  15.781411
0.503  15.784603
0.502  15.777336
0.501  15.766636
0.500  15.762044
0.499  15.758193
0.498  15.754166
0.497  15.753202
0.496  15.768269
0.495  15.771454
0.494  15.786609
0.493  15.804424
0.492  15.818128
0.491  15.840608
0.490  15.870686
0.489  15.897047
0.488  15.930311
0.487  15.972868
0.486  16.015035
0.485  16.055612
0.484  16.085433
0.483  16.128926
0.482  16.165581
0.481  16.191842
0.480  16.216400
0.479  16.228498
0.478  16.224509
0.477  16.200635
0.476  16.175709
0.475  16.130317
0.474  16.086895
0.473  16.032676
0.472  15.984138
0.471  15.942996
0.470  15.897335
0.469  15.870367
0.468  15.835689
0.467  15.808024
0.466  15.780844
0.465  15.760983
0.464  15.740865
0.463  15.729930
0.462  15.707478
0.461  15.678525
0.460  15.644122
0.459  15.602513
0.458  15.549080
0.457  15.479241
0.456  15.411100
0.455  15.334933
0.454  15.245967
0.453  15.151657
0.452  15.061958
0.451  14.966762
0.450  14.865637
0.449  14.750722
0.448  14.624746
0.447  14.495819
0.446  14.351753
0.445  14.195437
0.444  14.029089
0.443  13.857627
0.442  13.693505
0.441  13.543175
0.440  13.404876
0.439  13.307061
0.438  13.245689
0.437  13.239840
0.436  13.268209
0.435  13.317870
0.434  13.368144
0.433  13.405180
0.432  13.421318
0.431  13.416324
0.430  13.414214
0.429  13.404170
0.428  13.401084
0.427  13.411150
0.426  13.422008
0.425  13.443591
0.424  13.453209
0.423  13.447612
0.422  13.420819
0.421  13.341588
0.420  13.226435
0.419  13.043788
0.418  12.812332
0.417  12.552815
0.416  12.329754
0.415  12.212773
0.414  12.299714
0.413  12.647631
0.412  13.219759
0.411  13.887205
0.410  14.497636
0.409  14.933653
0.408  15.134863
0.407  15.142248
0.406  15.045454
0.405  14.930177
0.404  14.788989
0.403  14.613639
0.402  14.401884
0.401  14.141114
0.400  13.854453
