Name: Scoria
Type: Rock
Class: Igneous
Subclass:  Basic 
Particle Size: Solid surface
Sample No.: Ward02.txt
Owner: JPL
Wavelength range:  VNIR SWIR IR 
Origin: Ward's Collection of American Rocks.  Sample locality - Klamath Falls, Klamath County, Oregon.
Collected by:  Ward's Natural Science
Description: A cellular lava rock that varies in color from reddish brown
to brownish black.  Tiny glassy crystals of feldspar can sometimes be
discerned with the aid of a hand lens.
Geologic age - Pleistocene.


Measurement: Hemispherical reflectance
First Column: X
Second Column: Y
X Units: Wavelength (micrometers)
Y Units: Reflectance (percent)
First X Value: 2.500
Last X Value: 0.400
Number of X Values: 2101
Additional information: None

2.500  4.783393
2.499  4.579602
2.498  4.681874
2.497  5.200122
2.496  4.144546
2.495  5.079232
2.494  4.781970
2.493  4.976120
2.492  4.732127
2.491  5.022912
2.490  4.561295
2.489  4.711792
2.488  4.744960
2.487  4.744931
2.486  4.661581
2.485  4.964426
2.484  4.648754
2.483  4.851816
2.482  4.662643
2.481  4.906039
2.480  4.687164
2.479  4.805208
2.478  4.520983
2.477  4.840135
2.476  4.612360
2.475  4.963357
2.474  4.549854
2.473  4.914796
2.472  4.777233
2.471  4.814876
2.470  4.675833
2.469  4.890047
2.468  4.730079
2.467  4.872741
2.466  4.638400
2.465  4.812220
2.464  4.722855
2.463  4.842485
2.462  4.807296
2.461  4.760824
2.460  4.628306
2.459  4.839106
2.458  4.778087
2.457  5.041526
2.456  4.721172
2.455  4.871817
2.454  4.736217
2.453  4.847421
2.452  4.724689
2.451  4.903202
2.450  4.729397
2.449  4.903646
2.448  4.751161
2.447  4.896936
2.446  4.772970
2.445  4.896241
2.444  4.681934
2.443  4.846531
2.442  4.791078
2.441  4.861235
2.440  4.780536
2.439  4.893999
2.438  4.734468
2.437  4.880599
2.436  4.793611
2.435  4.874577
2.434  4.862235
2.433  4.965792
2.432  4.714175
2.431  4.839617
2.430  4.725171
2.429  4.913172
2.428  4.802074
2.427  4.860136
2.426  4.744640
2.425  4.846728
2.424  4.825377
2.423  4.906641
2.422  4.845139
2.421  4.791701
2.420  4.795425
2.419  4.972996
2.418  4.736084
2.417  4.918000
2.416  4.785041
2.415  4.862724
2.414  4.859847
2.413  4.884986
2.412  4.761493
2.411  4.832386
2.410  4.866762
2.409  4.858037
2.408  4.797562
2.407  4.949382
2.406  4.860657
2.405  4.912413
2.404  4.843829
2.403  4.875217
2.402  4.879947
2.401  4.896921
2.400  4.817059
2.399  4.836389
2.398  4.781873
2.397  4.879057
2.396  4.823161
2.395  4.842672
2.394  4.842813
2.393  4.875189
2.392  4.842363
2.391  4.937595
2.390  4.935177
2.389  4.898047
2.388  4.843256
2.387  4.899652
2.386  4.773688
2.385  4.822491
2.384  4.795864
2.383  4.835506
2.382  4.851105
2.381  4.890865
2.380  4.894581
2.379  4.837532
2.378  4.819772
2.377  4.955314
2.376  4.878825
2.375  4.831417
2.374  4.810827
2.373  4.937236
2.372  4.919663
2.371  4.830532
2.370  4.799606
2.369  4.884761
2.368  4.903583
2.367  4.908064
2.366  4.882419
2.365  4.851688
2.364  4.844100
2.363  4.903547
2.362  4.908974
2.361  4.969302
2.360  4.970244
2.359  4.918398
2.358  4.933227
2.357  4.910516
2.356  4.902104
2.355  4.918998
2.354  4.954019
2.353  4.966555
2.352  4.977961
2.351  4.930381
2.350  4.927769
2.349  4.945871
2.348  4.961081
2.347  4.914141
2.346  4.885025
2.345  4.903744
2.344  4.914409
2.343  4.893417
2.342  4.922976
2.341  4.902087
2.340  4.938508
2.339  4.925381
2.338  4.914242
2.337  4.921333
2.336  4.936935
2.335  4.934878
2.334  4.930528
2.333  4.907395
2.332  4.918901
2.331  4.916859
2.330  4.914916
2.329  4.865614
2.328  4.888139
2.327  4.901354
2.326  4.947635
2.325  4.922448
2.324  4.971822
2.323  4.905693
2.322  4.896574
2.321  4.933132
2.320  4.955673
2.319  4.910481
2.318  5.031728
2.317  5.024355
2.316  5.026837
2.315  4.982739
2.314  5.015093
2.313  4.896371
2.312  4.948924
2.311  4.943639
2.310  4.994932
2.309  4.933183
2.308  4.936118
2.307  4.922531
2.306  4.968329
2.305  4.909274
2.304  4.943437
2.303  4.933493
2.302  4.944978
2.301  4.960937
2.300  4.975172
2.299  4.945328
2.298  4.974147
2.297  4.977908
2.296  5.063983
2.295  4.912702
2.294  4.978810
2.293  4.902529
2.292  4.969192
2.291  4.920424
2.290  4.896897
2.289  5.002893
2.288  5.027457
2.287  4.987966
2.286  5.027347
2.285  4.859413
2.284  4.987192
2.283  4.925335
2.282  4.992078
2.281  4.937362
2.280  4.946541
2.279  5.012362
2.278  5.047541
2.277  4.937334
2.276  4.978291
2.275  4.953846
2.274  4.981263
2.273  5.006503
2.272  4.993083
2.271  4.922949
2.270  4.950708
2.269  4.904825
2.268  4.990066
2.267  4.960941
2.266  5.014385
2.265  4.943512
2.264  5.019967
2.263  4.922295
2.262  5.053526
2.261  4.928718
2.260  5.042351
2.259  4.945175
2.258  5.054959
2.257  4.959663
2.256  5.031051
2.255  4.938390
2.254  5.037299
2.253  4.914191
2.252  5.048632
2.251  4.902385
2.250  5.038673
2.249  5.003619
2.248  5.065199
2.247  4.935943
2.246  5.128949
2.245  4.950055
2.244  5.085587
2.243  4.992457
2.242  5.044720
2.241  4.982326
2.240  5.072483
2.239  4.971581
2.238  5.022423
2.237  4.996491
2.236  5.045262
2.235  5.020659
2.234  4.974434
2.233  5.003167
2.232  5.088074
2.231  5.065428
2.230  5.047538
2.229  4.940214
2.228  5.080312
2.227  4.959496
2.226  5.081213
2.225  5.031632
2.224  5.190684
2.223  4.913139
2.222  5.061706
2.221  5.009299
2.220  5.143002
2.219  5.017096
2.218  5.065630
2.217  4.983829
2.216  5.032890
2.215  5.032204
2.214  5.102658
2.213  4.946205
2.212  5.239792
2.211  4.800484
2.210  5.229190
2.209  4.993125
2.208  5.217346
2.207  5.015981
2.206  5.118172
2.205  5.040400
2.204  5.075915
2.203  5.014737
2.202  5.169502
2.201  4.991206
2.200  5.206128
2.199  5.072891
2.198  5.113626
2.197  5.089904
2.196  5.142902
2.195  5.106698
2.194  5.129263
2.193  5.045787
2.192  5.131327
2.191  4.991723
2.190  5.112565
2.189  4.976252
2.188  5.132009
2.187  5.040806
2.186  5.148529
2.185  5.081762
2.184  5.176590
2.183  5.094756
2.182  5.127925
2.181  5.095547
2.180  5.169495
2.179  5.100115
2.178  5.133903
2.177  5.166756
2.176  5.225206
2.175  5.079925
2.174  5.164477
2.173  5.167285
2.172  5.177901
2.171  5.138324
2.170  5.194597
2.169  5.059872
2.168  5.177305
2.167  5.102246
2.166  5.276537
2.165  5.109365
2.164  5.202295
2.163  5.129192
2.162  5.231745
2.161  5.181851
2.160  5.173121
2.159  5.164456
2.158  5.213317
2.157  5.156119
2.156  5.230447
2.155  5.150985
2.154  5.191507
2.153  5.137062
2.152  5.216868
2.151  5.185870
2.150  5.200429
2.149  5.137606
2.148  5.255012
2.147  5.190388
2.146  5.173498
2.145  5.209828
2.144  5.275588
2.143  5.124708
2.142  5.237533
2.141  5.178474
2.140  5.173271
2.139  5.177340
2.138  5.275358
2.137  5.104899
2.136  5.251040
2.135  5.118067
2.134  5.231616
2.133  5.196852
2.132  5.192116
2.131  5.141554
2.130  5.190246
2.129  5.174016
2.128  5.230967
2.127  5.212378
2.126  5.177990
2.125  5.154306
2.124  5.260423
2.123  5.123414
2.122  5.189756
2.121  5.188107
2.120  5.225597
2.119  5.180287
2.118  5.165123
2.117  5.209083
2.116  5.242675
2.115  5.142380
2.114  5.127913
2.113  5.174766
2.112  5.193976
2.111  5.174678
2.110  5.202256
2.109  5.120738
2.108  5.188746
2.107  5.101475
2.106  5.096719
2.105  5.173531
2.104  5.203685
2.103  5.115047
2.102  5.133104
2.101  5.121691
2.100  5.163109
2.099  5.162547
2.098  5.177659
2.097  5.160137
2.096  5.104299
2.095  5.110507
2.094  5.167704
2.093  5.147802
2.092  5.189827
2.091  5.178151
2.090  5.145479
2.089  5.147635
2.088  5.185337
2.087  5.185232
2.086  5.164963
2.085  5.135416
2.084  5.164995
2.083  5.193271
2.082  5.185208
2.081  5.152034
2.080  5.192720
2.079  5.216205
2.078  5.208872
2.077  5.181879
2.076  5.117809
2.075  5.154742
2.074  5.196676
2.073  5.210773
2.072  5.236506
2.071  5.133870
2.070  5.143684
2.069  5.176119
2.068  5.166852
2.067  5.204036
2.066  5.164828
2.065  5.167435
2.064  5.178420
2.063  5.199065
2.062  5.196915
2.061  5.150011
2.060  5.191920
2.059  5.234127
2.058  5.214327
2.057  5.221042
2.056  5.211680
2.055  5.237883
2.054  5.235050
2.053  5.211919
2.052  5.207934
2.051  5.216903
2.050  5.253717
2.049  5.257815
2.048  5.250549
2.047  5.212735
2.046  5.179694
2.045  5.245111
2.044  5.229900
2.043  5.248693
2.042  5.179300
2.041  5.209032
2.040  5.174348
2.039  5.240759
2.038  5.262513
2.037  5.277365
2.036  5.271238
2.035  5.325318
2.034  5.251996
2.033  5.297587
2.032  5.244299
2.031  5.291524
2.030  5.186260
2.029  5.267952
2.028  5.295967
2.027  5.263928
2.026  5.238715
2.025  5.273078
2.024  5.267079
2.023  5.292365
2.022  5.204305
2.021  5.264886
2.020  5.197793
2.019  5.257622
2.018  5.221805
2.017  5.278520
2.016  5.243079
2.015  5.248349
2.014  5.229804
2.013  5.277272
2.012  5.244831
2.011  5.344211
2.010  5.254189
2.009  5.319080
2.008  5.225474
2.007  5.270840
2.006  5.248933
2.005  5.239682
2.004  5.198275
2.003  5.314339
2.002  5.192935
2.001  5.316246
2.000  5.286074
1.999  5.302583
1.998  5.352684
1.997  5.320509
1.996  5.201530
1.995  5.291727
1.994  5.276843
1.993  5.333332
1.992  5.180017
1.991  5.342250
1.990  5.231826
1.989  5.262535
1.988  5.254055
1.987  5.295201
1.986  5.190428
1.985  5.290081
1.984  5.286783
1.983  5.324492
1.982  5.300373
1.981  5.418254
1.980  5.226981
1.979  5.245319
1.978  5.201376
1.977  5.287680
1.976  5.230153
1.975  5.345860
1.974  5.207451
1.973  5.351092
1.972  5.229197
1.971  5.303904
1.970  5.200622
1.969  5.337984
1.968  5.231274
1.967  5.377948
1.966  5.269080
1.965  5.403696
1.964  5.250195
1.963  5.334437
1.962  5.269479
1.961  5.383918
1.960  5.270209
1.959  5.360584
1.958  5.231319
1.957  5.379576
1.956  5.262520
1.955  5.314633
1.954  5.292598
1.953  5.354922
1.952  5.326855
1.951  5.324444
1.950  5.316559
1.949  5.334979
1.948  5.301765
1.947  5.351700
1.946  5.309294
1.945  5.321128
1.944  5.337818
1.943  5.394304
1.942  5.269479
1.941  5.352924
1.940  5.282093
1.939  5.365979
1.938  5.276297
1.937  5.357308
1.936  5.286317
1.935  5.360920
1.934  5.344946
1.933  5.505013
1.932  5.249741
1.931  5.423510
1.930  5.281195
1.929  5.390042
1.928  5.258135
1.927  5.469801
1.926  5.110074
1.925  5.542923
1.924  5.283263
1.923  5.345139
1.922  5.257074
1.921  5.459056
1.920  5.280351
1.919  5.443187
1.918  5.244471
1.917  5.370701
1.916  5.288023
1.915  5.367782
1.914  5.300416
1.913  5.404415
1.912  5.338055
1.911  5.377957
1.910  5.321328
1.909  5.395076
1.908  5.388823
1.907  5.453954
1.906  5.241158
1.905  5.385533
1.904  5.297766
1.903  5.456568
1.902  5.247445
1.901  5.480287
1.900  5.281042
1.899  5.377269
1.898  5.301462
1.897  5.427368
1.896  5.329404
1.895  5.453443
1.894  5.381815
1.893  5.394192
1.892  5.362962
1.891  5.408316
1.890  5.407485
1.889  5.420012
1.888  5.390018
1.887  5.413463
1.886  5.361179
1.885  5.399312
1.884  5.327677
1.883  5.459631
1.882  5.460076
1.881  5.481603
1.880  5.404006
1.879  5.536741
1.878  5.351997
1.877  5.488772
1.876  5.376813
1.875  5.484759
1.874  5.432361
1.873  5.477982
1.872  5.502937
1.871  5.446600
1.870  5.405989
1.869  5.487190
1.868  5.389264
1.867  5.420761
1.866  5.396598
1.865  5.492767
1.864  5.448577
1.863  5.491572
1.862  5.472746
1.861  5.424976
1.860  5.437149
1.859  5.491692
1.858  5.407101
1.857  5.410533
1.856  5.475141
1.855  5.461274
1.854  5.369686
1.853  5.463693
1.852  5.440774
1.851  5.513373
1.850  5.434230
1.849  5.418547
1.848  5.440049
1.847  5.479673
1.846  5.524184
1.845  5.473101
1.844  5.449195
1.843  5.474546
1.842  5.430685
1.841  5.475232
1.840  5.425010
1.839  5.432466
1.838  5.460144
1.837  5.442886
1.836  5.405320
1.835  5.525131
1.834  5.487665
1.833  5.543317
1.832  5.499129
1.831  5.534673
1.830  5.474184
1.829  5.510195
1.828  5.497553
1.827  5.491719
1.826  5.438206
1.825  5.486540
1.824  5.494917
1.823  5.554768
1.822  5.501383
1.821  5.577129
1.820  5.445567
1.819  5.449444
1.818  5.454109
1.817  5.481831
1.816  5.516692
1.815  5.553998
1.814  5.528424
1.813  5.514592
1.812  5.464039
1.811  5.499128
1.810  5.547956
1.809  5.546173
1.808  5.504600
1.807  5.534550
1.806  5.477716
1.805  5.529003
1.804  5.538129
1.803  5.561376
1.802  5.496144
1.801  5.529043
1.800  5.542465
1.799  5.557607
1.798  5.527396
1.797  5.513357
1.796  5.514917
1.795  5.535736
1.794  5.556690
1.793  5.595722
1.792  5.576724
1.791  5.569475
1.790  5.571846
1.789  5.575521
1.788  5.525019
1.787  5.515061
1.786  5.548901
1.785  5.527212
1.784  5.531221
1.783  5.544450
1.782  5.554997
1.781  5.577086
1.780  5.550136
1.779  5.510064
1.778  5.555182
1.777  5.503924
1.776  5.516331
1.775  5.575823
1.774  5.533748
1.773  5.489463
1.772  5.584893
1.771  5.572247
1.770  5.537565
1.769  5.486036
1.768  5.527227
1.767  5.559164
1.766  5.561694
1.765  5.512103
1.764  5.564121
1.763  5.568470
1.762  5.559297
1.761  5.560436
1.760  5.589373
1.759  5.586104
1.758  5.608125
1.757  5.554452
1.756  5.582513
1.755  5.579526
1.754  5.556999
1.753  5.565979
1.752  5.609048
1.751  5.508485
1.750  5.575215
1.749  5.562738
1.748  5.555560
1.747  5.530279
1.746  5.638117
1.745  5.588243
1.744  5.585916
1.743  5.556677
1.742  5.549935
1.741  5.554330
1.740  5.662316
1.739  5.597740
1.738  5.604878
1.737  5.540597
1.736  5.618919
1.735  5.578560
1.734  5.602950
1.733  5.566082
1.732  5.644085
1.731  5.589168
1.730  5.603443
1.729  5.555415
1.728  5.569826
1.727  5.545984
1.726  5.677199
1.725  5.564904
1.724  5.650272
1.723  5.671995
1.722  5.645761
1.721  5.648390
1.720  5.635795
1.719  5.604954
1.718  5.687672
1.717  5.616618
1.716  5.644872
1.715  5.555184
1.714  5.664389
1.713  5.551293
1.712  5.704505
1.711  5.570989
1.710  5.614660
1.709  5.561788
1.708  5.689252
1.707  5.627597
1.706  5.609765
1.705  5.508050
1.704  5.621313
1.703  5.604702
1.702  5.667776
1.701  5.634973
1.700  5.653189
1.699  5.553109
1.698  5.686269
1.697  5.635102
1.696  5.647655
1.695  5.647070
1.694  5.691782
1.693  5.673624
1.692  5.703740
1.691  5.536208
1.690  5.652870
1.689  5.565947
1.688  5.747107
1.687  5.652267
1.686  5.699675
1.685  5.715265
1.684  5.695497
1.683  5.665179
1.682  5.679336
1.681  5.621559
1.680  5.742766
1.679  5.612329
1.678  5.669875
1.677  5.631117
1.676  5.751248
1.675  5.573925
1.674  5.802979
1.673  5.620305
1.672  5.742922
1.671  5.689402
1.670  5.640861
1.669  5.846681
1.668  5.503200
1.667  5.645277
1.666  5.738384
1.665  5.592088
1.664  5.741228
1.663  5.633905
1.662  5.726100
1.661  5.587908
1.660  5.795430
1.659  5.665876
1.658  5.723372
1.657  5.650432
1.656  5.774179
1.655  5.699543
1.654  5.689979
1.653  5.610145
1.652  5.703868
1.651  5.721345
1.650  5.764811
1.649  5.676340
1.648  5.743102
1.647  5.628423
1.646  5.792126
1.645  5.637307
1.644  5.782448
1.643  5.693806
1.642  5.872661
1.641  5.487709
1.640  5.832280
1.639  5.656102
1.638  5.716458
1.637  5.682430
1.636  5.808462
1.635  5.633862
1.634  5.758945
1.633  5.697572
1.632  5.861532
1.631  5.662260
1.630  5.804799
1.629  5.650410
1.628  5.761288
1.627  5.715237
1.626  5.713435
1.625  5.670501
1.624  5.849689
1.623  5.791448
1.622  5.768077
1.621  5.670172
1.620  5.823886
1.619  5.702622
1.618  5.842268
1.617  5.774641
1.616  5.833431
1.615  5.758908
1.614  5.743485
1.613  5.742004
1.612  5.835116
1.611  5.720715
1.610  5.821181
1.609  5.661007
1.608  5.754090
1.607  5.787116
1.606  5.844327
1.605  5.746363
1.604  5.852128
1.603  5.745890
1.602  5.788589
1.601  5.719202
1.600  5.807161
1.599  5.801399
1.598  5.795963
1.597  5.769063
1.596  5.815726
1.595  5.773577
1.594  5.790223
1.593  5.746952
1.592  5.925378
1.591  5.742591
1.590  5.810748
1.589  5.725178
1.588  5.757830
1.587  5.768410
1.586  5.807640
1.585  5.761523
1.584  5.876308
1.583  5.778989
1.582  5.855158
1.581  5.816238
1.580  5.873212
1.579  5.767488
1.578  5.870295
1.577  5.761836
1.576  5.858725
1.575  5.790075
1.574  5.838355
1.573  5.810020
1.572  5.822494
1.571  5.768393
1.570  5.848135
1.569  5.789305
1.568  5.838995
1.567  5.800666
1.566  5.868171
1.565  5.857935
1.564  5.864597
1.563  5.830061
1.562  5.858077
1.561  5.875831
1.560  5.871908
1.559  5.829126
1.558  5.905047
1.557  5.806120
1.556  5.815068
1.555  5.808178
1.554  5.926561
1.553  5.862835
1.552  5.883568
1.551  5.808770
1.550  5.882762
1.549  5.832291
1.548  5.858543
1.547  5.860644
1.546  5.861648
1.545  5.898095
1.544  5.877293
1.543  5.843919
1.542  5.920900
1.541  5.938556
1.540  5.929740
1.539  5.936099
1.538  5.948389
1.537  5.860157
1.536  5.909973
1.535  5.865061
1.534  5.864111
1.533  5.905554
1.532  5.939683
1.531  5.911421
1.530  5.880205
1.529  5.850400
1.528  5.953443
1.527  5.937341
1.526  5.951830
1.525  5.911869
1.524  5.941708
1.523  5.897555
1.522  5.896210
1.521  5.916709
1.520  5.923744
1.519  5.874423
1.518  5.876072
1.517  5.889348
1.516  5.947338
1.515  5.958663
1.514  5.908830
1.513  5.939844
1.512  5.979315
1.511  5.937234
1.510  5.977456
1.509  5.952617
1.508  5.963897
1.507  5.939967
1.506  5.928466
1.505  5.957336
1.504  5.963325
1.503  5.978263
1.502  5.988009
1.501  5.929494
1.500  5.964000
1.499  5.988081
1.498  5.954764
1.497  5.954881
1.496  5.973494
1.495  5.954934
1.494  5.958886
1.493  5.992043
1.492  5.902611
1.491  5.962207
1.490  5.998195
1.489  5.983162
1.488  5.959288
1.487  5.982199
1.486  5.990257
1.485  6.008660
1.484  5.959913
1.483  5.946988
1.482  5.960208
1.481  6.024336
1.480  6.059611
1.479  6.043845
1.478  5.986729
1.477  6.006574
1.476  5.977869
1.475  6.019970
1.474  6.002954
1.473  6.013970
1.472  6.031500
1.471  6.070254
1.470  5.995482
1.469  6.006512
1.468  5.969572
1.467  6.001510
1.466  6.029647
1.465  6.022519
1.464  6.015866
1.463  6.019998
1.462  5.995288
1.461  5.989470
1.460  5.978531
1.459  6.040755
1.458  6.010149
1.457  6.076203
1.456  5.984416
1.455  5.997831
1.454  6.028613
1.453  6.028718
1.452  6.031024
1.451  6.037453
1.450  6.004594
1.449  6.079716
1.448  6.021837
1.447  6.071514
1.446  6.007493
1.445  6.064118
1.444  6.037190
1.443  6.109888
1.442  6.097077
1.441  6.125155
1.440  6.001208
1.439  6.149241
1.438  6.077743
1.437  6.090425
1.436  6.013963
1.435  6.091397
1.434  6.080966
1.433  6.113171
1.432  6.061406
1.431  6.008030
1.430  6.063707
1.429  6.113103
1.428  6.037979
1.427  6.121828
1.426  6.049069
1.425  6.143633
1.424  6.069405
1.423  6.065821
1.422  6.021512
1.421  6.144976
1.420  6.022679
1.419  6.081640
1.418  6.090637
1.417  6.168765
1.416  6.035633
1.415  6.124314
1.414  6.039310
1.413  6.175384
1.412  6.077813
1.411  6.135282
1.410  6.076307
1.409  6.168437
1.408  6.116514
1.407  6.028238
1.406  6.114456
1.405  6.157387
1.404  6.034984
1.403  6.194401
1.402  6.117102
1.401  6.171666
1.400  6.050891
1.399  6.183035
1.398  6.151673
1.397  6.191387
1.396  6.148602
1.395  6.184679
1.394  6.005210
1.393  6.172086
1.392  6.060344
1.391  6.310656
1.390  6.132178
1.389  6.274994
1.388  6.062669
1.387  6.209696
1.386  6.129362
1.385  6.180537
1.384  6.078894
1.383  6.170159
1.382  6.105046
1.381  6.159370
1.380  6.091058
1.379  6.168533
1.378  6.181222
1.377  6.246423
1.376  6.132017
1.375  6.296321
1.374  6.125018
1.373  6.206622
1.372  6.157229
1.371  6.278498
1.370  6.132246
1.369  6.295397
1.368  6.200400
1.367  6.262495
1.366  6.175489
1.365  6.355783
1.364  6.229390
1.363  6.344806
1.362  6.175340
1.361  6.208574
1.360  6.164354
1.359  6.292201
1.358  6.164668
1.357  6.383643
1.356  6.215282
1.355  6.086475
1.354  6.194128
1.353  6.379632
1.352  6.230251
1.351  6.338967
1.350  6.208779
1.349  6.297694
1.348  6.183426
1.347  6.296049
1.346  6.216164
1.345  6.276683
1.344  6.272499
1.343  6.266082
1.342  6.181784
1.341  6.385955
1.340  6.138588
1.339  6.318171
1.338  6.232070
1.337  6.368548
1.336  6.163332
1.335  6.345143
1.334  6.246935
1.333  6.265173
1.332  6.247296
1.331  6.286958
1.330  6.222446
1.329  6.404264
1.328  6.291951
1.327  6.315712
1.326  6.328079
1.325  6.356565
1.324  6.228769
1.323  6.290964
1.322  6.321794
1.321  6.401582
1.320  6.353436
1.319  6.335908
1.318  6.331414
1.317  6.318300
1.316  6.297205
1.315  6.331053
1.314  6.305072
1.313  6.348677
1.312  6.325810
1.311  6.366187
1.310  6.280843
1.309  6.385033
1.308  6.304055
1.307  6.416288
1.306  6.283198
1.305  6.376892
1.304  6.383478
1.303  6.414320
1.302  6.301004
1.301  6.380179
1.300  6.320708
1.299  6.381195
1.298  6.259965
1.297  6.378073
1.296  6.303704
1.295  6.444679
1.294  6.358484
1.293  6.422334
1.292  6.392834
1.291  6.460283
1.290  6.375077
1.289  6.403400
1.288  6.387681
1.287  6.429570
1.286  6.469806
1.285  6.486518
1.284  6.449366
1.283  6.475045
1.282  6.386120
1.281  6.458154
1.280  6.329835
1.279  6.401362
1.278  6.384345
1.277  6.468440
1.276  6.412774
1.275  6.424661
1.274  6.386148
1.273  6.502049
1.272  6.440616
1.271  6.469086
1.270  6.438370
1.269  6.440980
1.268  6.427385
1.267  6.513409
1.266  6.420675
1.265  6.505220
1.264  6.464620
1.263  6.425315
1.262  6.416438
1.261  6.456264
1.260  6.397998
1.259  6.454595
1.258  6.446124
1.257  6.479452
1.256  6.473920
1.255  6.501723
1.254  6.494786
1.253  6.488076
1.252  6.452215
1.251  6.507843
1.250  6.483168
1.249  6.532669
1.248  6.451783
1.247  6.510739
1.246  6.508039
1.245  6.506401
1.244  6.504797
1.243  6.531548
1.242  6.514902
1.241  6.524292
1.240  6.463967
1.239  6.515699
1.238  6.536106
1.237  6.550049
1.236  6.518727
1.235  6.526773
1.234  6.472601
1.233  6.512457
1.232  6.531631
1.231  6.549015
1.230  6.563429
1.229  6.609574
1.228  6.548919
1.227  6.550172
1.226  6.556452
1.225  6.546785
1.224  6.587957
1.223  6.593427
1.222  6.570908
1.221  6.581793
1.220  6.553161
1.219  6.594866
1.218  6.620082
1.217  6.612688
1.216  6.572557
1.215  6.590746
1.214  6.627198
1.213  6.564288
1.212  6.528548
1.211  6.560650
1.210  6.602629
1.209  6.632585
1.208  6.621397
1.207  6.616474
1.206  6.601610
1.205  6.564894
1.204  6.570829
1.203  6.538565
1.202  6.586574
1.201  6.612186
1.200  6.589576
1.199  6.588503
1.198  6.653500
1.197  6.599162
1.196  6.593637
1.195  6.600869
1.194  6.651882
1.193  6.629666
1.192  6.650300
1.191  6.590590
1.190  6.633663
1.189  6.800557
1.188  6.685616
1.187  6.641321
1.186  6.695692
1.185  6.621807
1.184  6.619261
1.183  6.608524
1.182  6.684470
1.181  6.642935
1.180  6.702263
1.179  6.696020
1.178  6.721904
1.177  6.704638
1.176  6.705545
1.175  6.657497
1.174  6.689337
1.173  6.656359
1.172  6.672906
1.171  6.658453
1.170  6.698141
1.169  6.677293
1.168  6.730608
1.167  6.744506
1.166  6.790775
1.165  6.754542
1.164  6.807576
1.163  6.677790
1.162  6.741724
1.161  6.669234
1.160  6.749286
1.159  6.738969
1.158  6.726012
1.157  6.717029
1.156  6.740432
1.155  6.722674
1.154  6.765964
1.153  6.679248
1.152  6.686847
1.151  6.690847
1.150  6.808018
1.149  6.730364
1.148  6.782120
1.147  6.740444
1.146  6.794168
1.145  6.745424
1.144  6.839618
1.143  6.753963
1.142  6.785442
1.141  6.710705
1.140  6.799558
1.139  6.683322
1.138  6.745508
1.137  6.800309
1.136  6.844042
1.135  6.709889
1.134  6.793741
1.133  6.735487
1.132  6.718534
1.131  6.765090
1.130  6.802496
1.129  6.808081
1.128  6.904595
1.127  6.677249
1.126  6.798944
1.125  6.771510
1.124  6.812260
1.123  6.791276
1.122  6.798393
1.121  6.794740
1.120  6.811686
1.119  6.765347
1.118  6.824493
1.117  6.765172
1.116  6.777688
1.115  6.776123
1.114  6.805034
1.113  6.788020
1.112  6.845434
1.111  6.735611
1.110  6.865190
1.109  6.760878
1.108  6.895812
1.107  6.781549
1.106  6.856301
1.105  6.846700
1.104  6.871891
1.103  6.771550
1.102  6.922905
1.101  6.735284
1.100  6.879465
1.099  6.812171
1.098  6.939471
1.097  6.666210
1.096  6.988076
1.095  6.831376
1.094  6.933032
1.093  6.799816
1.092  6.826532
1.091  6.732845
1.090  6.949882
1.089  6.672889
1.088  6.889247
1.087  6.773132
1.086  6.895300
1.085  6.774982
1.084  6.839421
1.083  6.868237
1.082  6.822658
1.081  6.744116
1.080  6.915529
1.079  6.884198
1.078  6.953286
1.077  6.765768
1.076  6.946818
1.075  6.841155
1.074  6.826277
1.073  6.783425
1.072  6.908107
1.071  6.803616
1.070  6.807847
1.069  6.754894
1.068  6.835011
1.067  6.772068
1.066  6.922803
1.065  6.792956
1.064  6.947630
1.063  6.778138
1.062  6.913653
1.061  6.784397
1.060  6.857250
1.059  6.739622
1.058  6.983817
1.057  6.729886
1.056  6.921311
1.055  6.834988
1.054  6.848124
1.053  6.866505
1.052  6.965231
1.051  6.843220
1.050  6.972174
1.049  6.817170
1.048  6.908912
1.047  6.819860
1.046  6.921739
1.045  6.767115
1.044  6.897151
1.043  6.853368
1.042  6.919607
1.041  6.825882
1.040  6.933927
1.039  6.865038
1.038  6.943436
1.037  6.735444
1.036  6.907975
1.035  6.870291
1.034  6.888964
1.033  6.852277
1.032  6.911814
1.031  6.824999
1.030  6.926832
1.029  6.823430
1.028  6.993029
1.027  6.851659
1.026  6.937347
1.025  6.858813
1.024  6.964902
1.023  6.806473
1.022  6.985073
1.021  6.873123
1.020  6.938576
1.019  6.881462
1.018  6.916947
1.017  6.846653
1.016  6.951563
1.015  6.830923
1.014  6.924845
1.013  6.861842
1.012  6.956654
1.011  6.913110
1.010  6.950850
1.009  6.821722
1.008  6.950899
1.007  6.890896
1.006  6.963087
1.005  6.894302
1.004  6.979336
1.003  6.879211
1.002  6.998631
1.001  6.902934
1.000  6.893156
0.999  6.928357
0.998  6.932569
0.997  6.807449
0.996  6.937313
0.995  6.895826
0.994  6.942875
0.993  6.831421
0.992  6.927281
0.991  6.911041
0.990  6.919215
0.989  6.931863
0.988  6.957493
0.987  6.874545
0.986  6.953613
0.985  6.937347
0.984  6.972934
0.983  6.959365
0.982  6.887519
0.981  6.825242
0.980  6.878513
0.979  6.895646
0.978  6.960775
0.977  6.879202
0.976  6.901838
0.975  6.930055
0.974  6.947846
0.973  6.899390
0.972  6.981161
0.971  6.933624
0.970  6.974895
0.969  6.963301
0.968  6.990520
0.967  6.947216
0.966  6.958059
0.965  6.974104
0.964  6.985924
0.963  6.972960
0.962  7.005168
0.961  6.957965
0.960  6.952720
0.959  6.946518
0.958  7.017512
0.957  6.945170
0.956  6.949386
0.955  6.904177
0.954  6.924701
0.953  6.952306
0.952  7.007654
0.951  6.990365
0.950  7.018368
0.949  6.982215
0.948  7.003026
0.947  6.994847
0.946  7.044919
0.945  7.010579
0.944  6.940441
0.943  6.935540
0.942  6.994359
0.941  7.020445
0.940  6.979031
0.939  6.986825
0.938  7.029148
0.937  7.007699
0.936  7.030158
0.935  7.066680
0.934  7.053544
0.933  7.030324
0.932  6.974870
0.931  6.937021
0.930  7.025740
0.929  7.066925
0.928  7.064496
0.927  7.020661
0.926  6.988874
0.925  7.043544
0.924  7.051800
0.923  7.067141
0.922  7.127984
0.921  7.103847
0.920  7.077259
0.919  7.101675
0.918  7.055028
0.917  7.101546
0.916  7.099003
0.915  7.100982
0.914  7.042366
0.913  7.082966
0.912  7.078994
0.911  7.067316
0.910  7.088358
0.909  7.135850
0.908  7.086230
0.907  7.136132
0.906  7.154638
0.905  7.196007
0.904  7.177530
0.903  7.130869
0.902  7.168219
0.901  7.173764
0.900  7.131625
0.899  7.167434
0.898  7.119186
0.897  7.142996
0.896  7.161510
0.895  7.211295
0.894  7.198261
0.893  7.203503
0.892  7.133463
0.891  7.228177
0.890  7.219127
0.889  7.196548
0.888  7.152360
0.887  7.197398
0.886  7.210078
0.885  7.298505
0.884  7.267638
0.883  7.306318
0.882  7.277664
0.881  7.308670
0.880  7.280923
0.879  7.294923
0.878  7.254770
0.877  7.313504
0.876  7.252998
0.875  7.325913
0.874  7.341897
0.873  7.357767
0.872  7.291601
0.871  7.351447
0.870  7.262936
0.869  7.346910
0.868  7.267771
0.867  7.403763
0.866  7.362433
0.865  7.448997
0.864  7.387254
0.863  7.443877
0.862  7.352846
0.861  7.376566
0.860  7.477214
0.859  7.431160
0.858  7.400427
0.857  7.413117
0.856  7.432681
0.855  7.434022
0.854  7.449951
0.853  7.468571
0.852  7.464142
0.851  7.474536
0.850  7.490897
0.849  7.489613
0.848  7.511117
0.847  7.528497
0.846  7.541792
0.845  7.531703
0.844  7.534855
0.843  7.559181
0.842  7.563926
0.841  7.565910
0.840  7.577295
0.839  7.594476
0.838  7.587959
0.837  7.593016
0.836  7.603538
0.835  7.603491
0.834  7.616399
0.833  7.627241
0.832  7.619218
0.831  7.627343
0.830  7.646646
0.829  7.647138
0.828  7.645899
0.827  7.652774
0.826  7.642000
0.825  7.660376
0.824  7.671151
0.823  7.675333
0.822  7.673795
0.821  7.673237
0.820  7.692525
0.819  7.685231
0.818  7.702667
0.817  7.704260
0.816  7.713496
0.815  7.704754
0.814  7.708630
0.813  7.708315
0.812  7.705179
0.811  7.719189
0.810  7.720247
0.809  7.727823
0.808  7.717751
0.807  7.725301
0.806  7.745023
0.805  7.737161
0.804  7.747290
0.803  7.745084
0.802  7.755985
0.801  7.766158
0.800  7.762935
0.799  7.760499
0.798  7.756670
0.797  7.761962
0.796  7.765484
0.795  7.761990
0.794  7.774671
0.793  7.777957
0.792  7.783727
0.791  7.769539
0.790  7.786312
0.789  7.782160
0.788  7.790515
0.787  7.788462
0.786  7.792146
0.785  7.802231
0.784  7.794785
0.783  7.805660
0.782  7.802619
0.781  7.805964
0.780  7.809444
0.779  7.803435
0.778  7.812871
0.777  7.815707
0.776  7.819061
0.775  7.813457
0.774  7.810973
0.773  7.809170
0.772  7.816369
0.771  7.817949
0.770  7.829501
0.769  7.825347
0.768  7.822475
0.767  7.833300
0.766  7.828971
0.765  7.828949
0.764  7.824427
0.763  7.829753
0.762  7.827087
0.761  7.820557
0.760  7.823811
0.759  7.833271
0.758  7.829955
0.757  7.830856
0.756  7.830635
0.755  7.834839
0.754  7.826656
0.753  7.835745
0.752  7.829338
0.751  7.829354
0.750  7.826746
0.749  7.826768
0.748  7.819342
0.747  7.828536
0.746  7.822457
0.745  7.824334
0.744  7.831310
0.743  7.825342
0.742  7.817990
0.741  7.819959
0.740  7.818858
0.739  7.815268
0.738  7.811542
0.737  7.813998
0.736  7.811522
0.735  7.813618
0.734  7.808538
0.733  7.806603
0.732  7.799184
0.731  7.797318
0.730  7.797850
0.729  7.791839
0.728  7.790249
0.727  7.789172
0.726  7.785739
0.725  7.773796
0.724  7.773850
0.723  7.767106
0.722  7.767256
0.721  7.762692
0.720  7.760193
0.719  7.757088
0.718  7.752644
0.717  7.748525
0.716  7.742177
0.715  7.743063
0.714  7.739294
0.713  7.731362
0.712  7.727632
0.711  7.726337
0.710  7.722930
0.709  7.717298
0.708  7.711572
0.707  7.701320
0.706  7.699183
0.705  7.694272
0.704  7.688695
0.703  7.685536
0.702  7.680864
0.701  7.676358
0.700  7.669588
0.699  7.665807
0.698  7.663140
0.697  7.655692
0.696  7.651657
0.695  7.641212
0.694  7.639481
0.693  7.632976
0.692  7.628109
0.691  7.623706
0.690  7.615719
0.689  7.610141
0.688  7.604868
0.687  7.601399
0.686  7.595984
0.685  7.588081
0.684  7.582680
0.683  7.577221
0.682  7.575016
0.681  7.566197
0.680  7.559310
0.679  7.553761
0.678  7.548623
0.677  7.543807
0.676  7.541395
0.675  7.532416
0.674  7.529820
0.673  7.522512
0.672  7.515741
0.671  7.514372
0.670  7.507526
0.669  7.499251
0.668  7.495638
0.667  7.489795
0.666  7.483497
0.665  7.477852
0.664  7.471673
0.663  7.464997
0.662  7.463367
0.661  7.458072
0.660  7.451837
0.659  7.447314
0.658  7.441273
0.657  7.435881
0.656  7.431854
0.655  7.426810
0.654  7.420232
0.653  7.415472
0.652  7.409497
0.651  7.403602
0.650  7.397437
0.649  7.390027
0.648  7.385908
0.647  7.382224
0.646  7.377161
0.645  7.371905
0.644  7.363797
0.643  7.358296
0.642  7.353557
0.641  7.350196
0.640  7.346961
0.639  7.340333
0.638  7.334446
0.637  7.327485
0.636  7.321152
0.635  7.316921
0.634  7.312074
0.633  7.302724
0.632  7.297176
0.631  7.294548
0.630  7.288017
0.629  7.280866
0.628  7.274512
0.627  7.268466
0.626  7.261147
0.625  7.252512
0.624  7.245941
0.623  7.237258
0.622  7.229379
0.621  7.222906
0.620  7.216039
0.619  7.207967
0.618  7.199690
0.617  7.190550
0.616  7.181718
0.615  7.170411
0.614  7.158749
0.613  7.149160
0.612  7.137330
0.611  7.126772
0.610  7.115214
0.609  7.103392
0.608  7.091079
0.607  7.076991
0.606  7.063184
0.605  7.050669
0.604  7.036149
0.603  7.019848
0.602  7.004294
0.601  6.987310
0.600  6.967981
0.599  6.953341
0.598  6.936536
0.597  6.918047
0.596  6.901217
0.595  6.883279
0.594  6.863306
0.593  6.840709
0.592  6.817714
0.591  6.795547
0.590  6.773207
0.589  6.750166
0.588  6.724379
0.587  6.698976
0.586  6.675148
0.585  6.649731
0.584  6.623300
0.583  6.597186
0.582  6.569505
0.581  6.544387
0.580  6.517427
0.579  6.488168
0.578  6.461415
0.577  6.434405
0.576  6.408733
0.575  6.380219
0.574  6.352038
0.573  6.324777
0.572  6.299843
0.571  6.275407
0.570  6.247245
0.569  6.223370
0.568  6.196748
0.567  6.172332
0.566  6.150199
0.565  6.126759
0.564  6.102297
0.563  6.079443
0.562  6.058812
0.561  6.023413
0.560  6.000573
0.559  5.980322
0.558  5.960520
0.557  5.941689
0.556  5.924881
0.555  5.908403
0.554  5.892729
0.553  5.877102
0.552  5.858939
0.551  5.845828
0.550  5.833943
0.549  5.822005
0.548  5.809695
0.547  5.799193
0.546  5.786304
0.545  5.777494
0.544  5.767556
0.543  5.758728
0.542  5.751409
0.541  5.742548
0.540  5.735619
0.539  5.727200
0.538  5.722347
0.537  5.716620
0.536  5.709601
0.535  5.703451
0.534  5.701167
0.533  5.696369
0.532  5.692588
0.531  5.689197
0.530  5.682944
0.529  5.681386
0.528  5.677827
0.527  5.675540
0.526  5.675053
0.525  5.671868
0.524  5.666650
0.523  5.663535
0.522  5.662716
0.521  5.660417
0.520  5.658677
0.519  5.658186
0.518  5.653386
0.517  5.651799
0.516  5.652103
0.515  5.650612
0.514  5.649554
0.513  5.646779
0.512  5.646415
0.511  5.646208
0.510  5.634710
0.509  5.634615
0.508  5.636729
0.507  5.632247
0.506  5.630083
0.505  5.628171
0.504  5.622847
0.503  5.619026
0.502  5.617360
0.501  5.615724
0.500  5.609434
0.499  5.610422
0.498  5.600499
0.497  5.600431
0.496  5.596528
0.495  5.591968
0.494  5.586132
0.493  5.582675
0.492  5.579349
0.491  5.574967
0.490  5.569691
0.489  5.565582
0.488  5.562317
0.487  5.559307
0.486  5.551133
0.485  5.544731
0.484  5.542161
0.483  5.538820
0.482  5.541123
0.481  5.548163
0.480  5.553430
0.479  5.562090
0.478  5.570115
0.477  5.576245
0.476  5.580319
0.475  5.578065
0.474  5.580809
0.473  5.584601
0.472  5.587185
0.471  5.587212
0.470  5.591316
0.469  5.592680
0.468  5.597834
0.467  5.599936
0.466  5.599906
0.465  5.604694
0.464  5.604643
0.463  5.605498
0.462  5.607672
0.461  5.606615
0.460  5.609864
0.459  5.609402
0.458  5.610565
0.457  5.614997
0.456  5.613408
0.455  5.611906
0.454  5.615065
0.453  5.612485
0.452  5.612830
0.451  5.615212
0.450  5.614854
0.449  5.616744
0.448  5.610282
0.447  5.613595
0.446  5.618053
0.445  5.621470
0.444  5.622995
0.443  5.630435
0.442  5.638908
0.441  5.631270
0.440  5.634410
0.439  5.637001
0.438  5.644132
0.437  5.648353
0.436  5.650939
0.435  5.655230
0.434  5.659684
0.433  5.664960
0.432  5.668556
0.431  5.672770
0.430  5.677448
0.429  5.678484
0.428  5.683461
0.427  5.688485
0.426  5.691298
0.425  5.695172
0.424  5.700507
0.423  5.703280
0.422  5.704405
0.421  5.706924
0.420  5.711346
0.419  5.715145
0.418  5.718019
0.417  5.720511
0.416  5.725774
0.415  5.731627
0.414  5.731757
0.413  5.734656
0.412  5.734240
0.411  5.734598
0.410  5.741039
0.409  5.745971
0.408  5.745121
0.407  5.752021
0.406  5.754748
0.405  5.753821
0.404  5.756974
0.403  5.758776
0.402  5.761851
0.401  5.765596
0.400  5.768701
