Name: Basalt
Type: Rock
Class: Igneous
Subclass:  Mafic 
Particle Size: Solid surface
Sample No.: Ward35.txt
Owner: JPL
Wavelength range:  VNIR SWIR IR  
Origin: Ward's Collection of American Rocks.  Sample locality - Chimney Rock, Somerset County, New Jersey.
Collected by:  Ward's Natural Science
Description: A greenish-black rock with aphanitic texture, and occasional
red bands due to iron oxide stain.
Geologic Age - Upper Triassic.



Measurement: Hemispherical reflectance
First Column: X
Second Column: Y
X Units: Wavelength (micrometers)
Y Units: Reflectance (percent)
First X Value: 2.500
Last X Value: 0.400
Number of X Values: 2101
Additional information: None

2.500  3.454009
2.499  3.554791
2.498  3.978692
2.497  3.717555
2.496  3.484040
2.495  3.592573
2.494  3.841354
2.493  3.570507
2.492  3.639511
2.491  3.624750
2.490  3.632120
2.489  3.682171
2.488  3.504055
2.487  3.643228
2.486  3.748341
2.485  3.579593
2.484  3.788793
2.483  3.478935
2.482  3.676988
2.481  3.668059
2.480  3.762808
2.479  3.515170
2.478  3.682939
2.477  3.598169
2.476  3.769899
2.475  3.570208
2.474  3.760627
2.473  3.576436
2.472  3.623509
2.471  3.587813
2.470  3.841037
2.469  3.544954
2.468  3.638046
2.467  3.574029
2.466  3.789727
2.465  3.511855
2.464  3.567261
2.463  3.618227
2.462  3.701768
2.461  3.622179
2.460  3.588249
2.459  3.586286
2.458  3.740495
2.457  3.565180
2.456  3.745104
2.455  3.616772
2.454  3.844408
2.453  3.564338
2.452  3.824509
2.451  3.566391
2.450  3.587033
2.449  3.565804
2.448  3.751024
2.447  3.612956
2.446  3.666668
2.445  3.703999
2.444  3.726633
2.443  3.652961
2.442  3.804986
2.441  3.639807
2.440  3.689692
2.439  3.576319
2.438  3.591752
2.437  3.532065
2.436  3.729242
2.435  3.581122
2.434  3.778564
2.433  3.609523
2.432  3.628656
2.431  3.695902
2.430  3.759350
2.429  3.615531
2.428  3.770209
2.427  3.617496
2.426  3.721819
2.425  3.676434
2.424  3.705579
2.423  3.679993
2.422  3.823415
2.421  3.605460
2.420  3.664107
2.419  3.657816
2.418  3.773574
2.417  3.647538
2.416  3.705646
2.415  3.648302
2.414  3.714170
2.413  3.645974
2.412  3.754130
2.411  3.651668
2.410  3.764159
2.409  3.684288
2.408  3.711752
2.407  3.711352
2.406  3.716738
2.405  3.643407
2.404  3.678644
2.403  3.662330
2.402  3.668228
2.401  3.578814
2.400  3.692619
2.399  3.778472
2.398  3.744762
2.397  3.628281
2.396  3.640649
2.395  3.637915
2.394  3.687426
2.393  3.683615
2.392  3.761035
2.391  3.689472
2.390  3.703016
2.389  3.654448
2.388  3.726794
2.387  3.699609
2.386  3.726894
2.385  3.755337
2.384  3.817211
2.383  3.700501
2.382  3.721376
2.381  3.688189
2.380  3.723863
2.379  3.743124
2.378  3.759202
2.377  3.682438
2.376  3.673580
2.375  3.666757
2.374  3.702490
2.373  3.721248
2.372  3.768327
2.371  3.705200
2.370  3.692205
2.369  3.731004
2.368  3.750489
2.367  3.723142
2.366  3.766549
2.365  3.709453
2.364  3.720981
2.363  3.741134
2.362  3.755653
2.361  3.752398
2.360  3.730986
2.359  3.695261
2.358  3.774016
2.357  3.779019
2.356  3.707730
2.355  3.720637
2.354  3.700997
2.353  3.694112
2.352  3.761899
2.351  3.740225
2.350  3.695749
2.349  3.709629
2.348  3.739350
2.347  3.749693
2.346  3.663656
2.345  3.713597
2.344  3.719737
2.343  3.751432
2.342  3.767849
2.341  3.703738
2.340  3.680964
2.339  3.721824
2.338  3.744378
2.337  3.772326
2.336  3.733673
2.335  3.685062
2.334  3.704876
2.333  3.767875
2.332  3.768448
2.331  3.774421
2.330  3.708970
2.329  3.714589
2.328  3.675756
2.327  3.701344
2.326  3.703427
2.325  3.760154
2.324  3.698255
2.323  3.733426
2.322  3.709501
2.321  3.753807
2.320  3.707462
2.319  3.690587
2.318  3.671365
2.317  3.689345
2.316  3.679023
2.315  3.769465
2.314  3.724184
2.313  3.696504
2.312  3.670118
2.311  3.736098
2.310  3.717032
2.309  3.724078
2.308  3.690689
2.307  3.727389
2.306  3.690270
2.305  3.752860
2.304  3.686226
2.303  3.780147
2.302  3.691234
2.301  3.742494
2.300  3.652855
2.299  3.714645
2.298  3.754453
2.297  3.780266
2.296  3.662458
2.295  3.786023
2.294  3.727230
2.293  3.736926
2.292  3.727502
2.291  3.777001
2.290  3.746414
2.289  3.722874
2.288  3.671106
2.287  3.830992
2.286  3.764738
2.285  3.818365
2.284  3.804826
2.283  3.778440
2.282  3.741291
2.281  3.796980
2.280  3.768841
2.279  3.816711
2.278  3.779869
2.277  3.824147
2.276  3.731910
2.275  3.834924
2.274  3.785155
2.273  3.767611
2.272  3.768628
2.271  3.766516
2.270  3.704503
2.269  3.803643
2.268  3.723940
2.267  3.781881
2.266  3.756721
2.265  3.711652
2.264  3.726862
2.263  3.829775
2.262  3.719225
2.261  3.847978
2.260  3.653000
2.259  3.895275
2.258  3.727081
2.257  3.789460
2.256  3.715158
2.255  3.758793
2.254  3.760965
2.253  3.823607
2.252  3.740070
2.251  3.825575
2.250  3.661103
2.249  3.824832
2.248  3.765818
2.247  3.904597
2.246  3.772109
2.245  3.850710
2.244  3.801203
2.243  3.872943
2.242  3.818437
2.241  3.891660
2.240  3.771699
2.239  3.837853
2.238  3.815246
2.237  3.935679
2.236  3.712548
2.235  3.910075
2.234  3.764855
2.233  3.841837
2.232  3.834715
2.231  3.842313
2.230  3.724023
2.229  3.936105
2.228  3.783075
2.227  3.877358
2.226  3.828538
2.225  3.910046
2.224  3.716246
2.223  3.905696
2.222  3.772639
2.221  3.890677
2.220  3.807643
2.219  3.851563
2.218  3.821526
2.217  3.879319
2.216  3.725452
2.215  3.926128
2.214  3.807291
2.213  3.964702
2.212  3.856422
2.211  3.849285
2.210  3.726251
2.209  3.918700
2.208  3.802211
2.207  3.932058
2.206  3.774887
2.205  3.884274
2.204  3.894254
2.203  3.858837
2.202  3.767172
2.201  3.916305
2.200  3.761953
2.199  3.923193
2.198  3.855401
2.197  3.960310
2.196  3.831238
2.195  4.006780
2.194  3.816471
2.193  4.044651
2.192  3.790152
2.191  3.917289
2.190  3.734891
2.189  3.854449
2.188  3.825093
2.187  3.941966
2.186  3.883323
2.185  3.912387
2.184  3.925944
2.183  3.897319
2.182  3.850636
2.181  3.924994
2.180  3.815760
2.179  3.959769
2.178  3.789038
2.177  3.937089
2.176  3.776556
2.175  3.954498
2.174  3.875155
2.173  3.954930
2.172  3.836753
2.171  3.878194
2.170  3.915333
2.169  4.020128
2.168  3.841318
2.167  4.012476
2.166  3.904843
2.165  3.936936
2.164  3.905737
2.163  3.995957
2.162  3.865850
2.161  4.042323
2.160  3.894050
2.159  3.957419
2.158  3.841120
2.157  3.979558
2.156  3.909271
2.155  4.026398
2.154  3.942775
2.153  3.970851
2.152  3.884779
2.151  3.953167
2.150  3.928190
2.149  3.958295
2.148  3.977512
2.147  4.006635
2.146  3.892837
2.145  4.014732
2.144  3.994098
2.143  4.007107
2.142  4.009749
2.141  3.978002
2.140  3.925513
2.139  3.928715
2.138  3.914030
2.137  3.973984
2.136  3.913244
2.135  3.951170
2.134  3.969109
2.133  4.025216
2.132  3.924390
2.131  3.971463
2.130  3.991807
2.129  4.015549
2.128  4.007036
2.127  3.981286
2.126  3.992273
2.125  4.068399
2.124  3.968776
2.123  3.989786
2.122  3.935737
2.121  4.044599
2.120  3.957649
2.119  3.985865
2.118  3.913810
2.117  4.008575
2.116  3.929515
2.115  3.907854
2.114  3.930836
2.113  3.958742
2.112  3.940284
2.111  3.972584
2.110  3.963143
2.109  3.983560
2.108  3.914171
2.107  3.942752
2.106  3.959672
2.105  4.011599
2.104  3.919925
2.103  3.898579
2.102  3.899779
2.101  3.964112
2.100  3.970355
2.099  3.942498
2.098  3.861202
2.097  3.876570
2.096  3.872277
2.095  3.962666
2.094  3.952974
2.093  3.942762
2.092  3.965540
2.091  3.961478
2.090  3.941344
2.089  3.900788
2.088  3.906452
2.087  4.010740
2.086  3.984997
2.085  3.946756
2.084  3.932967
2.083  3.957297
2.082  3.954751
2.081  3.960634
2.080  3.937452
2.079  3.989248
2.078  3.962402
2.077  3.945241
2.076  3.978897
2.075  3.953471
2.074  3.925858
2.073  3.961543
2.072  3.980180
2.071  3.958634
2.070  3.987897
2.069  3.983261
2.068  3.942553
2.067  3.967797
2.066  3.966627
2.065  4.009195
2.064  4.029415
2.063  3.990764
2.062  4.000652
2.061  3.990293
2.060  3.978819
2.059  3.991558
2.058  4.037730
2.057  4.066708
2.056  4.048238
2.055  3.977359
2.054  4.003271
2.053  4.050275
2.052  4.020252
2.051  3.977623
2.050  3.984498
2.049  3.959342
2.048  4.046475
2.047  4.027786
2.046  4.014197
2.045  4.019405
2.044  4.021215
2.043  3.941345
2.042  3.967861
2.041  3.974684
2.040  4.011751
2.039  4.028480
2.038  4.044034
2.037  3.987505
2.036  4.076429
2.035  4.018000
2.034  4.011219
2.033  3.995177
2.032  4.041319
2.031  4.026908
2.030  4.038132
2.029  3.982218
2.028  4.033226
2.027  4.056118
2.026  4.086709
2.025  4.033835
2.024  4.065486
2.023  4.014433
2.022  4.045136
2.021  3.995519
2.020  4.022622
2.019  4.007057
2.018  4.079251
2.017  4.077772
2.016  4.058264
2.015  4.044199
2.014  4.105785
2.013  4.005274
2.012  4.056999
2.011  4.003887
2.010  4.098251
2.009  4.066809
2.008  4.127118
2.007  4.077432
2.006  4.061262
2.005  4.020774
2.004  4.054118
2.003  4.047824
2.002  4.063651
2.001  4.006320
2.000  4.096253
1.999  3.969300
1.998  4.108933
1.997  4.044896
1.996  4.082261
1.995  4.006751
1.994  4.069710
1.993  4.002676
1.992  4.099638
1.991  3.984843
1.990  4.107492
1.989  4.050136
1.988  4.166103
1.987  3.958046
1.986  4.088138
1.985  4.025968
1.984  4.082708
1.983  3.981959
1.982  4.059731
1.981  4.051658
1.980  4.117562
1.979  4.050679
1.978  4.043740
1.977  4.017012
1.976  4.003515
1.975  3.929839
1.974  4.126553
1.973  3.961072
1.972  4.108117
1.971  4.051033
1.970  4.077332
1.969  3.986130
1.968  4.057796
1.967  4.025510
1.966  4.081778
1.965  3.914008
1.964  4.165715
1.963  3.950004
1.962  4.144063
1.961  3.934087
1.960  4.061198
1.959  3.895505
1.958  4.138488
1.957  4.013837
1.956  4.206859
1.955  3.949035
1.954  4.061268
1.953  4.018571
1.952  4.034989
1.951  3.957075
1.950  4.057238
1.949  4.009467
1.948  4.139605
1.947  3.956871
1.946  4.162778
1.945  3.996278
1.944  4.039355
1.943  3.981705
1.942  4.161751
1.941  3.976510
1.940  4.102962
1.939  3.932468
1.938  4.140612
1.937  4.093368
1.936  4.081645
1.935  4.012675
1.934  4.083927
1.933  3.964709
1.932  4.058132
1.931  3.975033
1.930  4.146107
1.929  3.998436
1.928  4.073631
1.927  4.042349
1.926  3.881680
1.925  4.050694
1.924  4.047474
1.923  3.884953
1.922  4.068582
1.921  3.997768
1.920  4.027536
1.919  3.942817
1.918  4.074193
1.917  3.921379
1.916  4.126643
1.915  3.885703
1.914  4.155348
1.913  3.886576
1.912  4.060964
1.911  3.955246
1.910  4.114260
1.909  4.030036
1.908  4.115172
1.907  4.015790
1.906  4.115868
1.905  3.939842
1.904  4.064632
1.903  4.015737
1.902  4.159173
1.901  4.063018
1.900  4.160676
1.899  4.041661
1.898  4.208388
1.897  4.064898
1.896  4.234385
1.895  4.073842
1.894  4.208105
1.893  4.088230
1.892  4.193256
1.891  4.170141
1.890  4.225834
1.889  4.170664
1.888  4.292549
1.887  4.106780
1.886  4.252984
1.885  4.174061
1.884  4.213389
1.883  4.232007
1.882  4.297025
1.881  4.179931
1.880  4.294692
1.879  4.289297
1.878  4.352330
1.877  4.206701
1.876  4.302295
1.875  4.219131
1.874  4.325631
1.873  4.234316
1.872  4.324073
1.871  4.253073
1.870  4.239476
1.869  4.233839
1.868  4.283700
1.867  4.233943
1.866  4.323189
1.865  4.263600
1.864  4.350594
1.863  4.323801
1.862  4.388275
1.861  4.198876
1.860  4.306555
1.859  4.288298
1.858  4.349583
1.857  4.280203
1.856  4.340465
1.855  4.294973
1.854  4.360959
1.853  4.326933
1.852  4.405995
1.851  4.325683
1.850  4.315148
1.849  4.343684
1.848  4.354523
1.847  4.304534
1.846  4.323439
1.845  4.210821
1.844  4.318070
1.843  4.379704
1.842  4.389170
1.841  4.327344
1.840  4.349834
1.839  4.353125
1.838  4.416582
1.837  4.340197
1.836  4.333640
1.835  4.309842
1.834  4.432847
1.833  4.417253
1.832  4.383197
1.831  4.325632
1.830  4.368911
1.829  4.352311
1.828  4.439484
1.827  4.341115
1.826  4.363467
1.825  4.369312
1.824  4.454969
1.823  4.451527
1.822  4.443141
1.821  4.379128
1.820  4.414930
1.819  4.359476
1.818  4.427254
1.817  4.399058
1.816  4.441631
1.815  4.362180
1.814  4.433019
1.813  4.474126
1.812  4.415027
1.811  4.328853
1.810  4.429409
1.809  4.475546
1.808  4.441638
1.807  4.417924
1.806  4.503517
1.805  4.456339
1.804  4.425194
1.803  4.403186
1.802  4.396234
1.801  4.368477
1.800  4.433518
1.799  4.455251
1.798  4.478436
1.797  4.455307
1.796  4.401756
1.795  4.436137
1.794  4.445967
1.793  4.395287
1.792  4.403612
1.791  4.445574
1.790  4.446229
1.789  4.411982
1.788  4.410167
1.787  4.464335
1.786  4.512401
1.785  4.467853
1.784  4.479486
1.783  4.451183
1.782  4.453848
1.781  4.462189
1.780  4.412952
1.779  4.480777
1.778  4.547482
1.777  4.460663
1.776  4.412315
1.775  4.505611
1.774  4.476105
1.773  4.478765
1.772  4.455694
1.771  4.502963
1.770  4.498180
1.769  4.493616
1.768  4.517147
1.767  4.517258
1.766  4.483962
1.765  4.448700
1.764  4.467668
1.763  4.494674
1.762  4.448747
1.761  4.493163
1.760  4.452458
1.759  4.471429
1.758  4.450564
1.757  4.496135
1.756  4.498051
1.755  4.527391
1.754  4.511602
1.753  4.523668
1.752  4.539936
1.751  4.585479
1.750  4.519691
1.749  4.489290
1.748  4.497627
1.747  4.544617
1.746  4.497900
1.745  4.484206
1.744  4.513061
1.743  4.563639
1.742  4.528428
1.741  4.561553
1.740  4.474217
1.739  4.579063
1.738  4.511578
1.737  4.520342
1.736  4.488166
1.735  4.558006
1.734  4.538124
1.733  4.610404
1.732  4.516803
1.731  4.598857
1.730  4.517931
1.729  4.554073
1.728  4.599939
1.727  4.612783
1.726  4.501650
1.725  4.528283
1.724  4.562308
1.723  4.641312
1.722  4.557825
1.721  4.574041
1.720  4.599852
1.719  4.597148
1.718  4.500427
1.717  4.569063
1.716  4.504989
1.715  4.549224
1.714  4.511203
1.713  4.618249
1.712  4.475456
1.711  4.587971
1.710  4.545163
1.709  4.601703
1.708  4.534481
1.707  4.614760
1.706  4.540178
1.705  4.642590
1.704  4.496796
1.703  4.564420
1.702  4.591179
1.701  4.620135
1.700  4.539276
1.699  4.577083
1.698  4.544717
1.697  4.598519
1.696  4.565286
1.695  4.631876
1.694  4.500611
1.693  4.649802
1.692  4.557041
1.691  4.661406
1.690  4.522263
1.689  4.690055
1.688  4.598263
1.687  4.589633
1.686  4.620079
1.685  4.713049
1.684  4.544085
1.683  4.657955
1.682  4.605857
1.681  4.601080
1.680  4.575080
1.679  4.742537
1.678  4.614112
1.677  4.626983
1.676  4.633895
1.675  4.707697
1.674  4.617728
1.673  4.664031
1.672  4.488572
1.671  4.745600
1.670  4.552217
1.669  4.643022
1.668  4.539085
1.667  4.840323
1.666  4.528509
1.665  4.652377
1.664  4.653659
1.663  4.738180
1.662  4.574415
1.661  4.681313
1.660  4.649003
1.659  4.744229
1.658  4.670488
1.657  4.737166
1.656  4.734546
1.655  4.737500
1.654  4.595700
1.653  4.732521
1.652  4.621209
1.651  4.731218
1.650  4.664749
1.649  4.690136
1.648  4.660285
1.647  4.741003
1.646  4.571762
1.645  4.785066
1.644  4.615250
1.643  4.734335
1.642  4.679483
1.641  4.620987
1.640  4.764435
1.639  4.659221
1.638  4.627358
1.637  4.725701
1.636  4.625192
1.635  4.777415
1.634  4.696343
1.633  4.782010
1.632  4.637262
1.631  4.780712
1.630  4.689282
1.629  4.794014
1.628  4.759563
1.627  4.755628
1.626  4.680872
1.625  4.762443
1.624  4.695628
1.623  4.793055
1.622  4.671237
1.621  4.814084
1.620  4.718605
1.619  4.776577
1.618  4.700980
1.617  4.802313
1.616  4.664340
1.615  4.887689
1.614  4.634406
1.613  4.693535
1.612  4.742395
1.611  4.745396
1.610  4.730310
1.609  4.788250
1.608  4.668360
1.607  4.755895
1.606  4.765219
1.605  4.824545
1.604  4.726201
1.603  4.780499
1.602  4.685265
1.601  4.862292
1.600  4.643351
1.599  4.764987
1.598  4.792302
1.597  4.748711
1.596  4.688904
1.595  4.818312
1.594  4.773768
1.593  4.863704
1.592  4.715751
1.591  4.825458
1.590  4.740285
1.589  4.792349
1.588  4.672032
1.587  4.837339
1.586  4.805488
1.585  4.849483
1.584  4.763522
1.583  4.785537
1.582  4.743829
1.581  4.807032
1.580  4.758877
1.579  4.784849
1.578  4.748777
1.577  4.800408
1.576  4.751248
1.575  4.850033
1.574  4.837408
1.573  4.815927
1.572  4.729197
1.571  4.830056
1.570  4.723201
1.569  4.818580
1.568  4.761037
1.567  4.841796
1.566  4.798384
1.565  4.774473
1.564  4.771189
1.563  4.911530
1.562  4.846642
1.561  4.889283
1.560  4.792858
1.559  4.876835
1.558  4.788870
1.557  4.828321
1.556  4.822601
1.555  4.890310
1.554  4.781059
1.553  4.818930
1.552  4.780539
1.551  4.844758
1.550  4.841199
1.549  4.860604
1.548  4.791350
1.547  4.820128
1.546  4.792195
1.545  4.896999
1.544  4.842608
1.543  4.788444
1.542  4.833210
1.541  4.779256
1.540  4.791234
1.539  4.805010
1.538  4.772379
1.537  4.863954
1.536  4.810305
1.535  4.842071
1.534  4.767009
1.533  4.790729
1.532  4.795654
1.531  4.843735
1.530  4.858868
1.529  4.864262
1.528  4.841338
1.527  4.830521
1.526  4.760013
1.525  4.856527
1.524  4.832067
1.523  4.826112
1.522  4.806014
1.521  4.857607
1.520  4.858516
1.519  4.880887
1.518  4.828735
1.517  4.847574
1.516  4.850861
1.515  4.880422
1.514  4.853621
1.513  4.820532
1.512  4.845407
1.511  4.886172
1.510  4.828683
1.509  4.824283
1.508  4.818354
1.507  4.855557
1.506  4.856521
1.505  4.832276
1.504  4.853635
1.503  4.843398
1.502  4.804553
1.501  4.873437
1.500  4.901174
1.499  4.850870
1.498  4.826245
1.497  4.800505
1.496  4.815044
1.495  4.834396
1.494  4.871930
1.493  4.864897
1.492  4.847352
1.491  4.818147
1.490  4.840901
1.489  4.831743
1.488  4.850427
1.487  4.888156
1.486  4.843505
1.485  4.823862
1.484  4.928165
1.483  4.853410
1.482  4.852455
1.481  4.863665
1.480  4.868055
1.479  4.831444
1.478  4.863373
1.477  4.819283
1.476  4.819371
1.475  4.865168
1.474  4.785442
1.473  4.656293
1.472  4.721404
1.471  4.613366
1.470  4.633282
1.469  4.703591
1.468  4.766008
1.467  4.803983
1.466  4.811033
1.465  4.765603
1.464  4.779039
1.463  4.718727
1.462  4.762803
1.461  4.751179
1.460  4.845421
1.459  4.806873
1.458  4.772321
1.457  4.775833
1.456  4.844498
1.455  4.833820
1.454  4.897144
1.453  4.840625
1.452  4.915814
1.451  4.821076
1.450  4.878839
1.449  4.879130
1.448  4.837621
1.447  4.770888
1.446  4.865229
1.445  4.861320
1.444  4.848735
1.443  4.754720
1.442  4.881558
1.441  4.869646
1.440  4.892825
1.439  4.832619
1.438  4.900739
1.437  4.800729
1.436  4.828229
1.435  4.857475
1.434  4.903280
1.433  4.821221
1.432  4.863065
1.431  4.862869
1.430  4.888154
1.429  4.875729
1.428  4.922729
1.427  4.822789
1.426  4.839174
1.425  4.841570
1.424  4.854221
1.423  4.792566
1.422  4.876080
1.421  4.721177
1.420  4.920787
1.419  4.811825
1.418  4.875871
1.417  4.793150
1.416  4.870535
1.415  4.775905
1.414  4.874706
1.413  4.791575
1.412  4.905613
1.411  4.888850
1.410  4.928361
1.409  4.755308
1.408  4.934134
1.407  4.781027
1.406  4.846685
1.405  4.821393
1.404  4.877745
1.403  4.855547
1.402  4.917643
1.401  4.834359
1.400  4.867765
1.399  4.771301
1.398  4.816940
1.397  4.794374
1.396  4.963662
1.395  4.728638
1.394  4.827730
1.393  4.757968
1.392  4.917342
1.391  4.948833
1.390  4.997543
1.389  4.860833
1.388  4.968251
1.387  4.845390
1.386  4.954140
1.385  4.853113
1.384  5.004337
1.383  4.819061
1.382  4.855218
1.381  4.775204
1.380  4.885611
1.379  4.955336
1.378  4.940143
1.377  4.851073
1.376  5.002299
1.375  4.878454
1.374  4.958585
1.373  4.941032
1.372  4.952950
1.371  4.890189
1.370  4.941270
1.369  4.868181
1.368  4.933856
1.367  4.841524
1.366  5.011894
1.365  4.881545
1.364  4.981274
1.363  4.968296
1.362  4.854929
1.361  4.821099
1.360  4.908626
1.359  4.929237
1.358  4.984256
1.357  4.838996
1.356  5.109106
1.355  4.612686
1.354  5.075436
1.353  4.807541
1.352  4.978780
1.351  4.861849
1.350  4.935616
1.349  4.821224
1.348  4.977616
1.347  4.792190
1.346  4.932332
1.345  4.948484
1.344  4.982637
1.343  4.956200
1.342  4.929365
1.341  4.835270
1.340  4.965515
1.339  4.839672
1.338  4.949101
1.337  4.829625
1.336  4.959220
1.335  4.899558
1.334  4.898969
1.333  4.786642
1.332  5.066056
1.331  4.829210
1.330  4.973101
1.329  4.849644
1.328  4.957002
1.327  4.916041
1.326  4.939586
1.325  4.800495
1.324  4.969102
1.323  4.883153
1.322  5.017998
1.321  4.816362
1.320  4.974810
1.319  4.876994
1.318  4.988457
1.317  4.888931
1.316  5.016931
1.315  4.912571
1.314  4.877288
1.313  4.898394
1.312  4.945155
1.311  4.897055
1.310  4.944119
1.309  4.898251
1.308  4.895112
1.307  4.907089
1.306  4.933750
1.305  4.888214
1.304  4.881807
1.303  4.926531
1.302  4.928163
1.301  4.882619
1.300  5.023162
1.299  4.898013
1.298  4.942683
1.297  4.836292
1.296  4.914258
1.295  4.917527
1.294  4.869631
1.293  4.866684
1.292  4.984722
1.291  4.847983
1.290  4.999491
1.289  4.882649
1.288  4.964399
1.287  4.967624
1.286  4.946917
1.285  4.917596
1.284  5.039879
1.283  4.955849
1.282  5.007961
1.281  4.956633
1.280  4.934163
1.279  4.945587
1.278  4.984315
1.277  4.935914
1.276  4.919306
1.275  4.895172
1.274  4.955933
1.273  4.945570
1.272  5.027083
1.271  4.909250
1.270  4.921557
1.269  4.895728
1.268  5.021667
1.267  4.939426
1.266  4.997914
1.265  4.970243
1.264  4.972880
1.263  4.887145
1.262  4.969511
1.261  4.942925
1.260  4.960901
1.259  4.900905
1.258  4.918435
1.257  4.927920
1.256  5.008507
1.255  4.912863
1.254  4.902034
1.253  4.927483
1.252  4.999693
1.251  4.948797
1.250  4.928558
1.249  4.885817
1.248  4.925792
1.247  4.916779
1.246  4.950557
1.245  4.915606
1.244  4.970780
1.243  4.895717
1.242  4.938183
1.241  4.937917
1.240  4.975736
1.239  4.940982
1.238  4.960428
1.237  4.941098
1.236  4.944058
1.235  4.916147
1.234  4.927170
1.233  4.971119
1.232  4.991436
1.231  4.915387
1.230  4.909466
1.229  4.951463
1.228  4.949111
1.227  4.975607
1.226  4.979000
1.225  4.951158
1.224  4.934242
1.223  4.894465
1.222  4.952494
1.221  4.929044
1.220  4.963713
1.219  5.016919
1.218  4.959039
1.217  4.926850
1.216  4.920315
1.215  4.926150
1.214  4.956987
1.213  4.950269
1.212  4.988785
1.211  4.964953
1.210  4.870531
1.209  4.909745
1.208  4.940969
1.207  4.970047
1.206  4.976008
1.205  4.977182
1.204  4.912664
1.203  4.889386
1.202  4.943421
1.201  4.967106
1.200  4.937671
1.199  5.013049
1.198  4.943630
1.197  4.931908
1.196  4.968684
1.195  4.989227
1.194  4.936786
1.193  4.978715
1.192  4.901240
1.191  4.903927
1.190  4.960672
1.189  5.004917
1.188  4.886573
1.187  4.958553
1.186  4.962036
1.185  4.936502
1.184  4.959115
1.183  5.008839
1.182  4.932222
1.181  4.988190
1.180  4.883884
1.179  4.918943
1.178  4.953546
1.177  5.038697
1.176  4.942907
1.175  4.933112
1.174  4.930390
1.173  4.952317
1.172  4.905341
1.171  4.942288
1.170  4.908626
1.169  4.936587
1.168  4.910737
1.167  4.962478
1.166  4.937193
1.165  4.944209
1.164  4.953686
1.163  4.950662
1.162  4.880669
1.161  4.928972
1.160  4.967240
1.159  5.043398
1.158  4.933406
1.157  4.948596
1.156  4.927023
1.155  4.945377
1.154  4.929697
1.153  4.982559
1.152  4.833713
1.151  4.920263
1.150  4.892416
1.149  4.963211
1.148  4.888106
1.147  4.938551
1.146  4.859812
1.145  4.934286
1.144  4.874727
1.143  4.973649
1.142  4.995028
1.141  4.917402
1.140  4.787271
1.139  4.953704
1.138  4.838378
1.137  4.913159
1.136  4.889646
1.135  4.984969
1.134  4.784884
1.133  4.953804
1.132  4.839249
1.131  4.897184
1.130  4.887554
1.129  4.942116
1.128  4.809086
1.127  4.948550
1.126  4.884455
1.125  4.971308
1.124  4.788984
1.123  4.891347
1.122  4.847849
1.121  4.873539
1.120  4.888419
1.119  4.893452
1.118  4.777874
1.117  4.962631
1.116  4.777963
1.115  4.933943
1.114  4.810044
1.113  4.894625
1.112  4.806890
1.111  4.885641
1.110  4.851646
1.109  4.868860
1.108  4.823121
1.107  4.866869
1.106  4.856839
1.105  4.976917
1.104  4.797494
1.103  4.904951
1.102  4.746246
1.101  4.841437
1.100  4.715982
1.099  4.785033
1.098  4.704972
1.097  4.852673
1.096  4.663762
1.095  4.806662
1.094  4.842849
1.093  4.834603
1.092  4.769599
1.091  4.798090
1.090  4.822644
1.089  4.859674
1.088  4.746753
1.087  4.928639
1.086  4.650866
1.085  4.920554
1.084  4.629793
1.083  4.709339
1.082  4.717316
1.081  4.868393
1.080  4.761285
1.079  4.753050
1.078  4.762933
1.077  4.797597
1.076  4.633354
1.075  4.811441
1.074  4.687217
1.073  4.794810
1.072  4.769607
1.071  4.887620
1.070  4.484651
1.069  4.851621
1.068  4.645557
1.067  4.805220
1.066  4.632022
1.065  4.785664
1.064  4.673004
1.063  4.739578
1.062  4.659482
1.061  4.867945
1.060  4.655574
1.059  4.799960
1.058  4.660213
1.057  4.776869
1.056  4.607453
1.055  4.783358
1.054  4.719905
1.053  4.765661
1.052  4.556134
1.051  4.755583
1.050  4.703593
1.049  4.707502
1.048  4.731294
1.047  4.789724
1.046  4.671034
1.045  4.725073
1.044  4.760042
1.043  4.799599
1.042  4.689123
1.041  4.750258
1.040  4.681624
1.039  4.781787
1.038  4.662391
1.037  4.702173
1.036  4.669415
1.035  4.720056
1.034  4.624826
1.033  4.819604
1.032  4.737257
1.031  4.724637
1.030  4.692369
1.029  4.789179
1.028  4.637992
1.027  4.764809
1.026  4.643811
1.025  4.764171
1.024  4.677510
1.023  4.782562
1.022  4.632234
1.021  4.760793
1.020  4.644463
1.019  4.819232
1.018  4.695501
1.017  4.811118
1.016  4.686435
1.015  4.664444
1.014  4.711244
1.013  4.737336
1.012  4.650443
1.011  4.764813
1.010  4.624549
1.009  4.843195
1.008  4.680387
1.007  4.726544
1.006  4.658971
1.005  4.855864
1.004  4.759530
1.003  4.777406
1.002  4.699305
1.001  4.719569
1.000  4.695314
0.999  4.847617
0.998  4.699769
0.997  4.781526
0.996  4.656052
0.995  4.737216
0.994  4.811797
0.993  4.806756
0.992  4.631762
0.991  4.765230
0.990  4.805811
0.989  4.815765
0.988  4.742738
0.987  4.784095
0.986  4.753845
0.985  4.809833
0.984  4.771138
0.983  4.790011
0.982  4.790444
0.981  4.866070
0.980  4.818356
0.979  4.813275
0.978  4.770921
0.977  4.802690
0.976  4.776794
0.975  4.856841
0.974  4.789487
0.973  4.829701
0.972  4.844682
0.971  4.847963
0.970  4.767802
0.969  4.766308
0.968  4.772397
0.967  4.868786
0.966  4.820485
0.965  4.853058
0.964  4.838203
0.963  4.803357
0.962  4.822917
0.961  4.910438
0.960  4.880750
0.959  4.871104
0.958  4.807762
0.957  4.905434
0.956  4.885333
0.955  4.846617
0.954  4.846955
0.953  4.923149
0.952  4.943397
0.951  4.931593
0.950  4.885666
0.949  4.881106
0.948  4.872329
0.947  4.970093
0.946  4.932669
0.945  4.883295
0.944  4.922520
0.943  4.949737
0.942  4.977069
0.941  5.016562
0.940  4.946799
0.939  4.898050
0.938  4.936480
0.937  5.002683
0.936  4.988256
0.935  4.962172
0.934  4.955917
0.933  4.965598
0.932  4.939886
0.931  5.021454
0.930  5.116370
0.929  5.047433
0.928  4.958113
0.927  5.012894
0.926  5.081099
0.925  4.978774
0.924  5.029408
0.923  5.036639
0.922  4.959010
0.921  5.056220
0.920  5.069253
0.919  5.041761
0.918  5.032874
0.917  5.008375
0.916  5.112474
0.915  5.072025
0.914  5.094914
0.913  5.151904
0.912  5.155820
0.911  5.129985
0.910  5.166238
0.909  5.129119
0.908  5.142198
0.907  5.223865
0.906  5.246952
0.905  5.181439
0.904  5.144390
0.903  5.115313
0.902  5.186605
0.901  5.179285
0.900  5.216871
0.899  5.203159
0.898  5.241555
0.897  5.215348
0.896  5.291150
0.895  5.239288
0.894  5.202684
0.893  5.156725
0.892  5.222933
0.891  5.224216
0.890  5.289376
0.889  5.221617
0.888  5.271221
0.887  5.240468
0.886  5.310325
0.885  5.352613
0.884  5.386331
0.883  5.270839
0.882  5.295531
0.881  5.312656
0.880  5.399379
0.879  5.378021
0.878  5.445354
0.877  5.344294
0.876  5.448073
0.875  5.435773
0.874  5.422990
0.873  5.364691
0.872  5.483028
0.871  5.337530
0.870  5.467735
0.869  5.351733
0.868  5.466316
0.867  5.431714
0.866  5.508111
0.865  5.370639
0.864  5.472858
0.863  5.415763
0.862  5.487522
0.861  5.418269
0.860  5.631649
0.859  5.728165
0.858  5.717773
0.857  5.717111
0.856  5.735765
0.855  5.724418
0.854  5.732406
0.853  5.743179
0.852  5.757485
0.851  5.757413
0.850  5.771040
0.849  5.783170
0.848  5.789308
0.847  5.808586
0.846  5.819176
0.845  5.820491
0.844  5.825397
0.843  5.829158
0.842  5.836683
0.841  5.854228
0.840  5.856666
0.839  5.862313
0.838  5.860741
0.837  5.877232
0.836  5.881566
0.835  5.891819
0.834  5.898728
0.833  5.906866
0.832  5.908453
0.831  5.920355
0.830  5.928255
0.829  5.927670
0.828  5.935643
0.827  5.946054
0.826  5.948713
0.825  5.950281
0.824  5.958271
0.823  5.966547
0.822  5.971836
0.821  5.977948
0.820  5.988419
0.819  5.987113
0.818  5.996142
0.817  6.002100
0.816  6.003805
0.815  6.010252
0.814  6.015593
0.813  6.019272
0.812  6.020228
0.811  6.023052
0.810  6.039586
0.809  6.033011
0.808  6.039978
0.807  6.041606
0.806  6.039141
0.805  6.045960
0.804  6.061611
0.803  6.053722
0.802  6.061498
0.801  6.060334
0.800  6.065567
0.799  6.066564
0.798  6.065225
0.797  6.063957
0.796  6.067532
0.795  6.080801
0.794  6.067095
0.793  6.061510
0.792  6.077181
0.791  6.070320
0.790  6.081531
0.789  6.070129
0.788  6.081062
0.787  6.075856
0.786  6.087838
0.785  6.083753
0.784  6.084047
0.783  6.082305
0.782  6.087838
0.781  6.081992
0.780  6.086818
0.779  6.077520
0.778  6.080462
0.777  6.073206
0.776  6.080284
0.775  6.078204
0.774  6.077855
0.773  6.078169
0.772  6.070655
0.771  6.076834
0.770  6.074037
0.769  6.071306
0.768  6.075748
0.767  6.072619
0.766  6.071344
0.765  6.065665
0.764  6.057342
0.763  6.066952
0.762  6.063919
0.761  6.056103
0.760  6.059273
0.759  6.057046
0.758  6.049006
0.757  6.051757
0.756  6.049180
0.755  6.050608
0.754  6.043903
0.753  6.042756
0.752  6.041925
0.751  6.034075
0.750  6.036850
0.749  6.035398
0.748  6.033670
0.747  6.028359
0.746  6.022941
0.745  6.024990
0.744  6.012047
0.743  6.016623
0.742  6.016386
0.741  6.013499
0.740  6.009098
0.739  6.005904
0.738  6.005002
0.737  6.003519
0.736  5.999434
0.735  5.997394
0.734  5.991098
0.733  5.991902
0.732  5.985117
0.731  5.980631
0.730  5.979696
0.729  5.974727
0.728  5.974221
0.727  5.970108
0.726  5.965402
0.725  5.965509
0.724  5.964159
0.723  5.961519
0.722  5.955555
0.721  5.947427
0.720  5.949263
0.719  5.943775
0.718  5.941673
0.717  5.937349
0.716  5.936086
0.715  5.931799
0.714  5.928737
0.713  5.926363
0.712  5.921422
0.711  5.919743
0.710  5.915873
0.709  5.910622
0.708  5.908955
0.707  5.905564
0.706  5.900937
0.705  5.897317
0.704  5.891139
0.703  5.890423
0.702  5.889757
0.701  5.884702
0.700  5.880591
0.699  5.877619
0.698  5.873910
0.697  5.870938
0.696  5.867801
0.695  5.861936
0.694  5.857203
0.693  5.856352
0.692  5.855812
0.691  5.852822
0.690  5.848770
0.689  5.841223
0.688  5.837275
0.687  5.834574
0.686  5.830668
0.685  5.822347
0.684  5.824728
0.683  5.820588
0.682  5.819607
0.681  5.817467
0.680  5.814514
0.679  5.809136
0.678  5.805824
0.677  5.802870
0.676  5.798685
0.675  5.795030
0.674  5.790013
0.673  5.786306
0.672  5.784650
0.671  5.779016
0.670  5.775313
0.669  5.770798
0.668  5.768000
0.667  5.766788
0.666  5.764948
0.665  5.759081
0.664  5.754912
0.663  5.754378
0.662  5.751452
0.661  5.747454
0.660  5.746005
0.659  5.742303
0.658  5.736881
0.657  5.735352
0.656  5.728633
0.655  5.723577
0.654  5.721878
0.653  5.720025
0.652  5.720895
0.651  5.716854
0.650  5.714549
0.649  5.713288
0.648  5.710692
0.647  5.707042
0.646  5.703945
0.645  5.699564
0.644  5.697455
0.643  5.695827
0.642  5.693396
0.641  5.691468
0.640  5.686847
0.639  5.683904
0.638  5.683225
0.637  5.681003
0.636  5.678100
0.635  5.674489
0.634  5.672570
0.633  5.671237
0.632  5.668909
0.631  5.666309
0.630  5.663789
0.629  5.661638
0.628  5.659712
0.627  5.658728
0.626  5.658019
0.625  5.655842
0.624  5.654539
0.623  5.652232
0.622  5.651952
0.621  5.652284
0.620  5.647775
0.619  5.644676
0.618  5.640891
0.617  5.642063
0.616  5.640922
0.615  5.638230
0.614  5.638190
0.613  5.634799
0.612  5.634063
0.611  5.634980
0.610  5.633790
0.609  5.632240
0.608  5.631031
0.607  5.628909
0.606  5.628136
0.605  5.626340
0.604  5.624684
0.603  5.623859
0.602  5.623514
0.601  5.622722
0.600  5.621414
0.599  5.620719
0.598  5.620067
0.597  5.620613
0.596  5.621024
0.595  5.619636
0.594  5.618632
0.593  5.618004
0.592  5.618227
0.591  5.614982
0.590  5.612775
0.589  5.612183
0.588  5.611355
0.587  5.608222
0.586  5.606978
0.585  5.604945
0.584  5.603466
0.583  5.600962
0.582  5.599296
0.581  5.596327
0.580  5.593208
0.579  5.589428
0.578  5.589136
0.577  5.586917
0.576  5.585439
0.575  5.583052
0.574  5.579565
0.573  5.575336
0.572  5.572902
0.571  5.570081
0.570  5.565755
0.569  5.560791
0.568  5.556320
0.567  5.551723
0.566  5.547116
0.565  5.543994
0.564  5.538346
0.563  5.535717
0.562  5.531340
0.561  5.520937
0.560  5.513285
0.559  5.506654
0.558  5.501038
0.557  5.495551
0.556  5.488446
0.555  5.480677
0.554  5.474097
0.553  5.467463
0.552  5.460003
0.551  5.453973
0.550  5.444867
0.549  5.438395
0.548  5.431058
0.547  5.421741
0.546  5.412852
0.545  5.404557
0.544  5.396665
0.543  5.386530
0.542  5.376464
0.541  5.368438
0.540  5.358557
0.539  5.349684
0.538  5.339453
0.537  5.329831
0.536  5.318725
0.535  5.308180
0.534  5.296556
0.533  5.286161
0.532  5.273189
0.531  5.261253
0.530  5.250918
0.529  5.238810
0.528  5.227664
0.527  5.214106
0.526  5.201684
0.525  5.188024
0.524  5.177266
0.523  5.163684
0.522  5.152379
0.521  5.139634
0.520  5.129771
0.519  5.114777
0.518  5.102772
0.517  5.089535
0.516  5.080118
0.515  5.068321
0.514  5.055775
0.513  5.040334
0.512  5.027993
0.511  5.019277
0.510  5.006449
0.509  4.996649
0.508  4.984556
0.507  4.976445
0.506  4.968646
0.505  4.960179
0.504  4.956253
0.503  4.942680
0.502  4.936439
0.501  4.926878
0.500  4.924025
0.499  4.915633
0.498  4.910929
0.497  4.903704
0.496  4.897808
0.495  4.892245
0.494  4.889386
0.493  4.882492
0.492  4.880832
0.491  4.878602
0.490  4.870934
0.489  4.868678
0.488  4.865595
0.487  4.866537
0.486  4.866631
0.485  4.858970
0.484  4.859114
0.483  4.857338
0.482  4.857032
0.481  4.854135
0.480  4.855077
0.479  4.857506
0.478  4.860733
0.477  4.862531
0.476  4.861310
0.475  4.863801
0.474  4.861211
0.473  4.860414
0.472  4.861618
0.471  4.860290
0.470  4.860957
0.469  4.861465
0.468  4.859412
0.467  4.859561
0.466  4.860143
0.465  4.859483
0.464  4.856948
0.463  4.854429
0.462  4.852924
0.461  4.852156
0.460  4.853195
0.459  4.847453
0.458  4.844712
0.457  4.841559
0.456  4.841371
0.455  4.835873
0.454  4.834093
0.453  4.827934
0.452  4.825621
0.451  4.822286
0.450  4.819915
0.449  4.814372
0.448  4.811480
0.447  4.805863
0.446  4.802190
0.445  4.795572
0.444  4.791080
0.443  4.785291
0.442  4.782872
0.441  4.779347
0.440  4.773664
0.439  4.768204
0.438  4.762677
0.437  4.757743
0.436  4.758080
0.435  4.749921
0.434  4.745461
0.433  4.741047
0.432  4.736917
0.431  4.734848
0.430  4.733569
0.429  4.732181
0.428  4.729927
0.427  4.728169
0.426  4.727439
0.425  4.722481
0.424  4.724985
0.423  4.724343
0.422  4.726835
0.421  4.726690
0.420  4.729912
0.419  4.731226
0.418  4.731624
0.417  4.736245
0.416  4.737483
0.415  4.740232
0.414  4.740791
0.413  4.744591
0.412  4.748800
0.411  4.751457
0.410  4.755639
0.409  4.759406
0.408  4.763458
0.407  4.765321
0.406  4.768738
0.405  4.773989
0.404  4.775198
0.403  4.780190
0.402  4.782369
0.401  4.785042
0.400  4.784989
