Name: Cassiterite SnO_2
Type: Mineral
Class: Oxides
Subclass: 
Particle Size: 0-45um
Sample No.: O-3A
Owner: JPL
Wavelength range: IR
Origin: USA, South Dakota, Lawrence County, Tinton
Collected by Burminco
Description: 





Measurement: Hemispherical reflectance
First Column: X
Second Column: Y
X Units:  Wavelength (micrometers)
Y Units:  Reflectance (percent)
First X Value: 15.3853
Last X Value: 2.00032
Number of X Values: 2256
Additional information: o03aa.txt
 
15.3853	15.3135
15.3397	15.208
15.2945	15.1467
15.2495	14.7864
15.2048	14.6926
15.1603	14.6748
15.1161	14.3784
15.0722	14.4526
15.0285	14.471
14.9851	14.4772
14.9419	14.5145
14.8989	14.4074
14.8563	14.4722
14.8138	14.2477
14.7716	14.0138
14.7296	14.0653
14.6879	14.0066
14.6464	13.7423
14.6052	13.7398
14.5641	13.9988
14.5233	14.0406
14.4828	13.981
14.4424	13.9243
14.4023	13.9624
14.3624	13.9802
14.3227	13.8434
14.2833	13.8203
14.244	13.8226
14.205	13.8604
14.1662	13.8603
14.1276	13.9074
14.0892	13.853
14.051	13.6933
14.0131	13.6326
13.9753	13.5766
13.9377	13.4062
13.9004	13.273
13.8632	13.2747
13.8262	13.1607
13.7895	13.0974
13.7529	13.0182
13.7165	12.9449
13.6803	13.0172
13.6443	12.7716
13.6085	12.5331
13.5729	12.4342
13.5374	12.418
13.5022	12.4377
13.4671	12.4144
13.4322	12.2038
13.3975	11.8798
13.363	11.7195
13.3286	11.6577
13.2944	11.566
13.2604	11.5082
13.2266	11.3806
13.193	11.274
13.1595	11.1384
13.1262	11.0836
13.093	11.1222
13.06	11.0785
13.0272	11.0088
12.9946	11.0339
12.9621	10.9535
12.9298	10.8394
12.8976	10.7841
12.8656	10.8516
12.8337	10.7856
12.8021	10.7354
12.7705	10.5236
12.7391	10.5951
12.7079	10.6611
12.6769	10.5222
12.6459	10.6273
12.6152	10.641
12.5845	10.6699
12.5541	10.5422
12.5238	10.4797
12.4936	10.5043
12.4635	10.4115
12.4337	10.3307
12.4039	10.3738
12.3743	10.374
12.3448	10.2288
12.3155	10.0745
12.2863	9.9094
12.2573	10.0235
12.2284	10.1523
12.1996	10.0777
12.171	9.9343
12.1425	9.84855
12.1141	9.83894
12.0859	9.79773
12.0578	9.78656
12.0298	9.88497
12.0019	9.88646
11.9742	9.85883
11.9466	9.81784
11.9192	9.83816
11.8918	9.85186
11.8646	9.74326
11.8375	9.65871
11.8106	9.72891
11.7837	9.82484
11.757	9.82429
11.7304	9.81655
11.7039	9.80369
11.6776	9.70038
11.6513	9.61495
11.6252	9.72143
11.5992	9.80338
11.5733	9.77696
11.5475	9.67813
11.5219	9.53443
11.4963	9.5141
11.4709	9.46
11.4455	9.4711
11.4203	9.4815
11.3952	9.43744
11.3702	9.39589
11.3454	9.35176
11.3206	9.47305
11.2959	9.4574
11.2714	9.26475
11.2469	9.24781
11.2226	9.30846
11.1983	9.29957
11.1742	9.33167
11.1502	9.36933
11.1263	9.29459
11.1024	9.22523
11.0787	9.21795
11.0551	9.29591
11.0316	9.30551
11.0081	9.26282
10.9848	9.24674
10.9616	9.16939
10.9385	9.11518
10.9154	9.13582
10.8925	9.13601
10.8697	9.20923
10.8469	9.29679
10.8243	9.35965
10.8017	9.29194
10.7793	9.2191
10.7569	9.2852
10.7346	9.38032
10.7125	9.28863
10.6904	9.16853
10.6684	9.18948
10.6465	9.26695
10.6247	9.20709
10.6029	9.16635
10.5813	9.29518
10.5597	9.36253
10.5383	9.30341
10.5169	9.33093
10.4956	9.30314
10.4744	9.25152
10.4533	9.31067
10.4323	9.37788
10.4113	9.3873
10.3904	9.36459
10.3697	9.25585
10.349	9.2667
10.3284	9.39933
10.3078	9.43068
10.2874	9.36509
10.267	9.2979
10.2467	9.34837
10.2265	9.40996
10.2064	9.34578
10.1863	9.28581
10.1663	9.32403
10.1464	9.34831
10.1266	9.31683
10.1069	9.36217
10.0872	9.32434
10.0676	9.36735
10.0481	9.35481
10.0287	9.32098
10.0093	9.43402
9.99005	9.46021
9.97084	9.37255
9.95169	9.39347
9.93263	9.4917
9.91364	9.48924
9.89472	9.41264
9.87587	9.35442
9.8571	9.45722
9.83839	9.52963
9.81976	9.53674
9.80119	9.49326
9.78271	9.4325
9.76428	9.39197
9.74592	9.42227
9.72764	9.39354
9.70943	9.43446
9.69128	9.64152
9.6732	9.7615
9.65518	9.77469
9.63724	9.76756
9.61935	9.78596
9.60155	9.98484
9.5838	10.0632
9.56611	9.85653
9.5485	9.74447
9.53094	9.78968
9.51345	9.78967
9.49604	9.83487
9.47867	9.96168
9.46137	9.88064
9.44414	9.84999
9.42697	9.78143
9.40986	9.77363
9.39281	9.66995
9.37583	9.63926
9.35891	9.84146
9.34204	9.97379
9.32524	9.94324
9.3085	9.97303
9.29182	9.92302
9.27519	10.0309
9.25863	9.99294
9.24213	9.93937
9.22568	9.9507
9.2093	9.92594
9.19297	9.83997
9.17669	9.84306
9.16048	9.86731
9.14433	9.94176
9.12823	9.92066
9.11218	9.93832
9.0962	10.0504
9.08027	10.1001
9.06439	10.0829
9.04858	10.0242
9.03281	10.0174
9.0171	10.0197
9.00145	9.91422
8.98585	9.84016
8.9703	9.81918
8.9548	9.87222
8.93937	9.98239
8.92398	10.0995
8.90865	10.1892
8.89337	10.0871
8.87814	10.0089
8.86296	9.993
8.84784	9.99686
8.83277	9.92189
8.81774	9.90285
8.80277	9.88197
8.78786	9.86464
8.77298	9.78805
8.75816	9.69074
8.7434	9.64025
8.72868	9.62385
8.714	9.73367
8.69938	9.73567
8.68481	9.65386
8.67029	9.65538
8.65581	9.60901
8.64139	9.53069
8.62701	9.41872
8.61268	9.54596
8.5984	9.73048
8.58416	9.76466
8.56997	9.63681
8.55583	9.57272
8.54174	9.66979
8.52769	9.70601
8.51368	9.58093
8.49973	9.57578
8.48582	9.62783
8.47195	9.64873
8.45813	9.56584
8.44436	9.53195
8.43062	9.67503
8.41693	9.77767
8.4033	9.7359
8.3897	9.70069
8.37614	9.64299
8.36264	9.53734
8.34917	9.53598
8.33574	9.63126
8.32236	9.72366
8.30903	9.63968
8.29573	9.58957
8.28248	9.59906
8.26927	9.57922
8.2561	9.64865
8.24298	9.58572
8.2299	9.59399
8.21685	9.64642
8.20385	9.59937
8.19089	9.51015
8.17797	9.46822
8.16509	9.51838
8.15225	9.59082
8.13946	9.54732
8.1267	9.41231
8.11398	9.38648
8.10131	9.38239
8.08867	9.24686
8.07606	9.22959
8.0635	9.26644
8.05099	9.34107
8.0385	9.4011
8.02606	9.38505
8.01366	9.26157
8.00129	9.26667
7.98896	9.31734
7.97667	9.31936
7.96442	9.20793
7.9522	9.14961
7.94002	9.24316
7.92788	9.21628
7.91578	9.05646
7.90371	9.06382
7.89168	9.19632
7.87969	9.25155
7.86773	9.21727
7.85581	9.23759
7.84392	9.20532
7.83207	9.1434
7.82026	9.08419
7.80849	9.09894
7.79674	9.16013
7.78503	9.17425
7.77337	9.16444
7.76173	9.1448
7.75012	9.14607
7.73856	9.07879
7.72703	9.06732
7.71553	9.09951
7.70406	9.11449
7.69263	9.11415
7.68123	9.10467
7.66987	9.13686
7.65855	9.11396
7.64725	9.10399
7.63598	9.08177
7.62475	9.0111
7.61356	9.05759
7.60239	9.14195
7.59126	9.16033
7.58017	9.12693
7.5691	9.0601
7.55806	9.12316
7.54707	9.16172
7.5361	9.11264
7.52516	9.07397
7.51425	9.06373
7.50338	9.01475
7.49253	8.97184
7.48172	9.08568
7.47094	9.16119
7.46019	9.11633
7.44947	9.09319
7.43879	9.13146
7.42813	9.13366
7.4175	9.07653
7.4069	9.11696
7.39634	9.14467
7.3858	9.11574
7.37529	9.03101
7.36482	8.96138
7.35437	8.96372
7.34396	9.02637
7.33357	9.12254
7.32321	9.13313
7.31288	9.13795
7.30258	9.07853
7.29231	8.99562
7.28207	9.05906
7.27185	9.10735
7.26167	9.13951
7.25152	9.11915
7.24139	8.98423
7.23129	8.92213
7.22122	8.9946
7.21117	9.08998
7.20116	9.03964
7.19117	9.08116
7.18121	9.04778
7.17128	9.02341
7.16137	8.94671
7.1515	8.92533
7.14164	8.97801
7.13182	8.95051
7.12203	8.98408
7.11225	9.03351
7.10251	8.9895
7.0928	8.93061
7.08311	8.90544
7.07344	8.89187
7.06381	8.89817
7.0542	8.8883
7.04461	8.92761
7.03506	8.9128
7.02552	8.881
7.01601	8.96595
7.00653	9.00365
6.99708	8.93558
6.98765	8.90711
6.97824	8.99068
6.96886	9.04112
6.95951	8.98307
6.95018	8.87073
6.94087	8.88597
6.9316	8.96271
6.92234	8.96866
6.91311	8.89235
6.90391	8.83467
6.89473	8.80764
6.88557	8.86621
6.87644	8.91468
6.86733	8.98596
6.85824	8.9836
6.84918	8.86698
6.84015	8.74653
6.83114	8.84448
6.82215	8.87418
6.81319	8.7965
6.80424	8.78193
6.79532	8.91087
6.78643	8.93064
6.77756	8.77887
6.76871	8.72685
6.75989	8.72992
6.75109	8.70355
6.74231	8.70083
6.73355	8.71235
6.72482	8.66969
6.71611	8.67771
6.70742	8.70871
6.69875	8.69536
6.69011	8.7392
6.68149	8.83714
6.67289	8.84564
6.66431	8.76763
6.65576	8.67482
6.64722	8.67483
6.63871	8.76074
6.63022	8.71242
6.62175	8.65148
6.61331	8.68746
6.60488	8.67545
6.59648	8.66272
6.5881	8.6893
6.57974	8.68474
6.5714	8.71006
6.56308	8.65381
6.55478	8.61257
6.54651	8.706
6.53825	8.75105
6.53001	8.66951
6.5218	8.74024
6.51361	8.70488
6.50544	8.61571
6.49729	8.69399
6.48915	8.76211
6.48104	8.70294
6.47295	8.61901
6.46488	8.51411
6.45683	8.53258
6.4488	8.57563
6.44079	8.61955
6.4328	8.67117
6.42482	8.68074
6.41687	8.79184
6.40894	8.75382
6.40103	8.57044
6.39314	8.51643
6.38526	8.55507
6.37741	8.63118
6.36957	8.61314
6.36176	8.59285
6.35396	8.56754
6.34618	8.58252
6.33843	8.55149
6.33069	8.51042
6.32297	8.55768
6.31527	8.52219
6.30758	8.46529
6.29992	8.44108
6.29227	8.5159
6.28465	8.55418
6.27704	8.51375
6.26945	8.50585
6.26188	8.50074
6.25432	8.53017
6.24679	8.5758
6.23927	8.46402
6.23177	8.43762
6.22429	8.42932
6.21683	8.36854
6.20938	8.41874
6.20195	8.40088
6.19454	8.36015
6.18715	8.44885
6.17978	8.45826
6.17242	8.40563
6.16508	8.42335
6.15776	8.4038
6.15045	8.37659
6.14317	8.40704
6.1359	8.43973
6.12864	8.46025
6.12141	8.44657
6.11419	8.45299
6.10699	8.37977
6.0998	8.33627
6.09263	8.33152
6.08549	8.2958
6.07835	8.31838
6.07123	8.27126
6.06413	8.22946
6.05705	8.34928
6.04998	8.57982
6.04293	8.46222
6.0359	8.25452
6.02888	8.25056
6.02187	8.32859
6.01489	8.32767
6.00792	8.28906
6.00096	8.24296
5.99403	8.26404
5.98711	8.2081
5.9802	8.14762
5.97331	8.24584
5.96644	8.3076
5.95958	8.20211
5.95274	8.14634
5.94591	8.20908
5.9391	8.33247
5.9323	8.21123
5.92552	8.05028
5.91876	8.1046
5.91201	8.11414
5.90528	8.10523
5.89856	8.17353
5.89186	8.11771
5.88517	8.11231
5.8785	8.14991
5.87184	8.07639
5.8652	8.00592
5.85857	7.92507
5.85196	7.89407
5.84536	7.92594
5.83878	8.02572
5.83221	8.09356
5.82566	8.1687
5.81912	8.14986
5.81259	8.04185
5.80608	7.99615
5.79959	7.9731
5.79311	8.01198
5.78665	8.00055
5.78019	8.00567
5.77376	8.08139
5.76734	8.11709
5.76093	8.08332
5.75453	8.07123
5.74815	8.09573
5.74179	8.06427
5.73543	8.02775
5.7291	7.96255
5.72277	7.98669
5.71646	8.02035
5.71017	7.98057
5.70389	8.04061
5.69762	8.06922
5.69136	7.99859
5.68513	8.00156
5.6789	8.0221
5.67268	8.03162
5.66648	8.03184
5.6603	8.08502
5.65413	8.05749
5.64797	8.00926
5.64182	8.05703
5.63569	8.05561
5.62957	8.05106
5.62347	8.03685
5.61737	7.992
5.61129	7.98873
5.60522	7.97647
5.59917	7.97
5.59313	7.99316
5.5871	8.04154
5.58109	8.07088
5.57509	8.0236
5.5691	7.99152
5.56312	7.95009
5.55716	7.9327
5.55121	7.99736
5.54528	7.9898
5.53935	7.91086
5.53344	7.8386
5.52754	7.8311
5.52166	7.89975
5.51578	7.9557
5.50992	7.96425
5.50407	7.9735
5.49823	7.93326
5.49241	7.87623
5.4866	7.85362
5.4808	7.86372
5.47501	7.85186
5.46923	7.8632
5.46347	7.91089
5.45772	7.89792
5.45198	7.88753
5.44625	7.90936
5.44054	7.90894
5.43484	7.86676
5.42914	7.85836
5.42347	7.86975
5.4178	7.85532
5.41214	7.80835
5.4065	7.78266
5.40087	7.81804
5.39525	7.78348
5.38964	7.7869
5.38404	7.76942
5.37846	7.69231
5.37288	7.72561
5.36732	7.71843
5.36177	7.64957
5.35623	7.67959
5.35071	7.71483
5.34519	7.67623
5.33968	7.70163
5.33419	7.77121
5.32871	7.79083
5.32324	7.7302
5.31778	7.74921
5.31233	7.70167
5.30689	7.64349
5.30147	7.63267
5.29605	7.60473
5.29065	7.61465
5.28525	7.67906
5.27987	7.66441
5.2745	7.69025
5.26914	7.75384
5.26379	7.74975
5.25845	7.68591
5.25312	7.6476
5.24781	7.63779
5.2425	7.653
5.23721	7.66841
5.23192	7.64551
5.22665	7.63906
5.22138	7.64477
5.21613	7.66163
5.21089	7.60875
5.20566	7.61795
5.20044	7.62774
5.19522	7.56324
5.19002	7.55181
5.18483	7.55451
5.17965	7.53131
5.17448	7.5466
5.16933	7.6453
5.16418	7.67043
5.15904	7.56956
5.15391	7.52558
5.14879	7.54956
5.14368	7.55593
5.13859	7.55502
5.1335	7.54835
5.12842	7.51162
5.12335	7.46412
5.1183	7.4289
5.11325	7.40594
5.10821	7.41787
5.10318	7.45423
5.09817	7.52403
5.09316	7.55889
5.08816	7.51766
5.08317	7.46564
5.07819	7.40281
5.07322	7.38318
5.06826	7.44436
5.06331	7.50094
5.05837	7.50703
5.05344	7.46497
5.04852	7.45133
5.04361	7.48698
5.03871	7.48876
5.03382	7.50244
5.02894	7.4423
5.02406	7.40195
5.0192	7.45853
5.01435	7.43698
5.0095	7.40826
5.00467	7.37787
4.99984	7.37232
4.99502	7.42956
4.99021	7.44669
4.98542	7.42334
4.98063	7.37143
4.97585	7.36565
4.97108	7.38377
4.96632	7.34215
4.96156	7.32329
4.95682	7.32952
4.95209	7.38566
4.94736	7.40858
4.94264	7.37164
4.93794	7.31826
4.93324	7.3002
4.92855	7.30726
4.92387	7.29832
4.9192	7.33541
4.91453	7.31381
4.90988	7.23852
4.90524	7.21646
4.9006	7.25864
4.89597	7.27968
4.89135	7.32212
4.88674	7.34171
4.88214	7.27414
4.87755	7.26046
4.87296	7.31709
4.86839	7.34949
4.86382	7.30205
4.85926	7.20185
4.85471	7.1579
4.85017	7.20388
4.84564	7.27861
4.84111	7.25295
4.8366	7.15279
4.83209	7.1818
4.82759	7.25922
4.8231	7.27689
4.81862	7.24102
4.81415	7.16728
4.80968	7.17947
4.80522	7.20875
4.80077	7.16214
4.79633	7.09396
4.7919	7.12459
4.78747	7.15288
4.78306	7.11473
4.77865	7.11438
4.77425	7.16705
4.76986	7.13474
4.76547	7.16904
4.7611	7.16751
4.75673	7.09558
4.75237	7.08757
4.74802	7.08745
4.74367	7.08227
4.73934	7.10844
4.73501	7.09732
4.73069	7.05132
4.72638	7.08087
4.72207	7.09571
4.71777	7.13956
4.71348	7.15306
4.7092	7.09423
4.70493	7.02937
4.70066	6.9895
4.69641	6.97171
4.69216	7.00973
4.68791	6.99017
4.68368	7.00858
4.67945	7.08849
4.67523	7.07368
4.67102	7.01462
4.66682	6.9788
4.66262	6.94425
4.65843	6.99015
4.65425	7.04403
4.65007	6.99904
4.64591	6.99602
4.64175	6.97275
4.6376	7.05791
4.63345	7.14606
4.62932	7.06019
4.62519	6.98473
4.62106	6.91418
4.61695	6.93088
4.61284	6.94787
4.60874	6.90996
4.60465	6.93108
4.60056	6.92155
4.59648	6.90838
4.59241	6.95557
4.58835	6.96136
4.58429	6.92762
4.58024	6.88289
4.5762	6.8725
4.57216	6.91102
4.56814	6.96577
4.56411	7.04489
4.5601	6.9768
4.55609	6.99261
4.55209	7.0117
4.5481	6.95921
4.54411	6.89854
4.54013	6.85292
4.53616	6.80237
4.5322	6.84753
4.52824	6.88306
4.52429	6.84131
4.52034	6.74503
4.51641	6.72336
4.51247	6.85915
4.50855	6.90554
4.50463	6.85965
4.50072	6.83
4.49682	6.79758
4.49292	6.75148
4.48903	6.74273
4.48515	6.83584
4.48127	6.84164
4.4774	6.80088
4.47354	6.77551
4.46968	6.73815
4.46584	6.80299
4.46199	6.80806
4.45815	6.74464
4.45432	6.72797
4.4505	6.69549
4.44668	6.78135
4.44287	6.88388
4.43907	6.8383
4.43527	6.72528
4.43148	6.64444
4.4277	6.65918
4.42392	6.61687
4.42015	6.58982
4.41638	6.64961
4.41262	6.64743
4.40887	6.61677
4.40513	6.67355
4.40139	6.71595
4.39765	6.73513
4.39393	6.6667
4.39021	6.60493
4.38649	6.63959
4.38278	6.68103
4.37908	6.75487
4.37539	6.74347
4.3717	6.721
4.36801	6.67736
4.36434	6.58115
4.36067	6.61275
4.357	6.66824
4.35335	6.62745
4.34969	6.67251
4.34605	6.64322
4.34241	6.59921
4.33877	6.67413
4.33514	6.75456
4.33152	6.69686
4.32791	6.60995
4.3243	6.67681
4.32069	6.7121
4.3171	6.69111
4.31351	6.6372
4.30992	6.63712
4.30634	6.64416
4.30277	6.60855
4.2992	6.59885
4.29564	6.65097
4.29208	6.70765
4.28853	6.72697
4.28499	6.6441
4.28145	6.57332
4.27792	6.61814
4.27439	6.6294
4.27087	6.59516
4.26735	6.62309
4.26384	6.65594
4.26034	6.57776
4.25684	6.54674
4.25335	6.48079
4.24986	6.45817
4.24638	6.52944
4.24291	6.5749
4.23944	6.56856
4.23598	6.56657
4.23252	6.61527
4.22906	6.59615
4.22562	6.55693
4.22218	6.57298
4.21874	6.48536
4.21531	6.4075
4.21189	6.40795
4.20847	6.4373
4.20506	6.53535
4.20165	6.57254
4.19825	6.51943
4.19485	6.47537
4.19146	6.47737
4.18807	6.47868
4.18469	6.53443
4.18132	6.50839
4.17795	6.45972
4.17458	6.42959
4.17123	6.47024
4.16787	6.43715
4.16453	6.3736
4.16118	6.41782
4.15785	6.46355
4.15451	6.4505
4.15119	6.44196
4.14787	6.4225
4.14455	6.44325
4.14124	6.48909
4.13794	6.4473
4.13464	6.37375
4.13134	6.35222
4.12805	6.42021
4.12477	6.41319
4.12149	6.41853
4.11822	6.46441
4.11495	6.44105
4.11168	6.38462
4.10843	6.38126
4.10517	6.43571
4.10192	6.43811
4.09868	6.4013
4.09545	6.38618
4.09221	6.40681
4.08899	6.46748
4.08576	6.45068
4.08255	6.37323
4.07933	6.33882
4.07613	6.28672
4.07292	6.2772
4.06973	6.28228
4.06654	6.40437
4.06335	6.46915
4.06017	6.3797
4.05699	6.28572
4.05382	6.33911
4.05065	6.38199
4.04749	6.33586
4.04433	6.35208
4.04118	6.39958
4.03803	6.38798
4.03489	6.37157
4.03175	6.36188
4.02862	6.3462
4.02549	6.33596
4.02237	6.34599
4.01925	6.41294
4.01614	6.40396
4.01303	6.30794
4.00993	6.1467
4.00683	6.1493
4.00373	6.30025
4.00064	6.33665
3.99756	6.28091
3.99448	6.22371
3.9914	6.25378
3.98833	6.30636
3.98527	6.36144
3.98221	6.24182
3.97915	6.2367
3.9761	6.24753
3.97305	6.28806
3.97001	6.35891
3.96697	6.34662
3.96394	6.31757
3.96091	6.26863
3.95789	6.23921
3.95487	6.2441
3.95186	6.29312
3.94885	6.33082
3.94584	6.2915
3.94284	6.32395
3.93984	6.42295
3.93685	6.38409
3.93386	6.28844
3.93088	6.2113
3.9279	6.15484
3.92493	6.20643
3.92196	6.26913
3.919	6.25733
3.91604	6.19508
3.91308	6.20666
3.91013	6.2509
3.90718	6.31255
3.90424	6.35657
3.9013	6.26583
3.89837	6.12908
3.89544	6.17076
3.89252	6.24059
3.8896	6.21944
3.88668	6.18524
3.88377	6.19343
3.88086	6.23216
3.87796	6.18632
3.87506	6.15189
3.87217	6.16903
3.86928	6.20173
3.86639	6.19004
3.86351	6.23921
3.86064	6.29222
3.85776	6.35068
3.8549	6.30395
3.85203	6.24071
3.84917	6.22198
3.84631	6.24487
3.84346	6.23392
3.84062	6.19932
3.83777	6.17394
3.83494	6.17778
3.8321	6.16637
3.82927	6.2482
3.82644	6.30001
3.82362	6.21183
3.82081	6.1701
3.81799	6.18355
3.81518	6.16194
3.81238	6.16307
3.80958	6.17337
3.80678	6.16857
3.80399	6.21673
3.8012	6.27219
3.79841	6.23621
3.79563	6.15926
3.79286	6.08053
3.79008	6.08746
3.78731	6.06634
3.78455	6.08786
3.78179	6.22842
3.77903	6.22184
3.77628	6.17431
3.77353	6.18457
3.77079	6.13036
3.76805	6.13199
3.76531	6.15727
3.76258	6.17776
3.75985	6.26762
3.75713	6.26514
3.7544	6.1448
3.75169	6.11178
3.74898	6.10359
3.74627	6.20351
3.74356	6.26329
3.74086	6.26208
3.73816	6.23967
3.73547	6.19476
3.73278	6.12393
3.7301	6.1218
3.72741	6.18677
3.72474	6.17328
3.72206	6.19217
3.71939	6.20992
3.71673	6.16985
3.71406	6.08547
3.71141	6.03586
3.70875	6.08519
3.7061	6.13689
3.70345	6.1729
3.70081	6.23938
3.69817	6.31621
3.69553	6.28593
3.6929	6.19352
3.69027	6.14249
3.68765	6.14912
3.68503	6.14966
3.68241	6.14273
3.6798	6.16541
3.67719	6.15928
3.67458	6.18581
3.67198	6.19396
3.66938	6.08628
3.66678	6.08907
3.66419	6.15933
3.66161	6.21506
3.65902	6.21601
3.65644	6.16777
3.65387	6.13082
3.65129	6.09845
3.64872	6.08237
3.64616	6.11775
3.64359	6.15995
3.64103	6.10066
3.63848	6.02492
3.63593	6.13391
3.63338	6.244
3.63084	6.31013
3.6283	6.26594
3.62576	6.17667
3.62322	6.16302
3.62069	6.17369
3.61817	6.21157
3.61564	6.22503
3.61312	6.17293
3.61061	6.03896
3.6081	6.03605
3.60559	6.15805
3.60308	6.20558
3.60058	6.23526
3.59808	6.24804
3.59558	6.19881
3.59309	6.17013
3.59061	6.19497
3.58812	6.18992
3.58564	6.13262
3.58316	6.11411
3.58069	6.12688
3.57822	6.20906
3.57575	6.33446
3.57328	6.29328
3.57082	6.1921
3.56836	6.18019
3.56591	6.16261
3.56346	6.12272
3.56101	6.09341
3.55857	6.11263
3.55613	6.12842
3.55369	6.07744
3.55126	6.10834
3.54883	6.14909
3.5464	6.17695
3.54397	6.25111
3.54155	6.27409
3.53914	6.18316
3.53672	6.13057
3.53431	6.1855
3.5319	6.16869
3.5295	6.16702
3.5271	6.1908
3.5247	6.18597
3.52231	6.19161
3.51991	6.17919
3.51753	6.13947
3.51514	6.11544
3.51276	6.0777
3.51038	6.08046
3.50801	6.14885
3.50563	6.21845
3.50327	6.24403
3.5009	6.22278
3.49854	6.12159
3.49618	6.11203
3.49382	6.13423
3.49147	6.13596
3.48912	6.18767
3.48677	6.25051
3.48443	6.19039
3.48209	6.11457
3.47975	6.12688
3.47742	6.14156
3.47509	6.19932
3.47276	6.22766
3.47044	6.09804
3.46812	6.21222
3.4658	6.40053
3.46348	6.30305
3.46117	6.1656
3.45886	6.08888
3.45656	6.09548
3.45425	6.21333
3.45195	6.33502
3.44966	6.31158
3.44736	6.33958
3.44507	6.25597
3.44279	6.06108
3.4405	6.10474
3.43822	6.18624
3.43594	6.20192
3.43367	6.27071
3.43139	6.19518
3.42912	6.16392
3.42686	6.22032
3.42459	6.22571
3.42233	6.18962
3.42007	6.21102
3.41782	6.26265
3.41557	6.22356
3.41332	6.16697
3.41108	6.15706
3.40883	6.20121
3.40659	6.25008
3.40435	6.24058
3.40212	6.19403
3.39989	6.05715
3.39766	6.06583
3.39544	6.14372
3.39322	6.1853
3.391	6.27289
3.38878	6.31365
3.38657	6.31959
3.38436	6.39606
3.38215	6.33101
3.37994	6.2566
3.37774	6.25769
3.37554	6.25077
3.37335	6.27806
3.37115	6.2931
3.36896	6.20033
3.36678	6.16901
3.36459	6.26741
3.36241	6.21882
3.36023	6.04593
3.35805	5.99124
3.35588	6.1984
3.35371	6.2704
3.35154	6.15004
3.34938	6.1132
3.34721	6.18922
3.34505	6.19413
3.3429	6.18283
3.34074	6.26
3.33859	6.29416
3.33644	6.25773
3.3343	6.21319
3.33215	6.2966
3.33001	6.28102
3.32788	6.2005
3.32574	6.30118
3.32361	6.33813
3.32148	6.29503
3.31936	6.27125
3.31723	6.23415
3.31511	6.22045
3.31299	6.22125
3.31088	6.25169
3.30876	6.26272
3.30665	6.24062
3.30455	6.25257
3.30244	6.27941
3.30034	6.28606
3.29824	6.31728
3.29614	6.2773
3.29405	6.22264
3.29196	6.29051
3.28987	6.33819
3.28778	6.30441
3.2857	6.37808
3.28362	6.40734
3.28154	6.32493
3.27946	6.25416
3.27739	6.21881
3.27532	6.25135
3.27325	6.26557
3.27119	6.1826
3.26913	6.22158
3.26707	6.28427
3.26501	6.24572
3.26295	6.22763
3.2609	6.33739
3.25885	6.21422
3.2568	6.10493
3.25476	6.26302
3.25272	6.39314
3.25068	6.36895
3.24864	6.3036
3.24661	6.28693
3.24458	6.26597
3.24255	6.27293
3.24052	6.2406
3.2385	6.23646
3.23648	6.33587
3.23446	6.41004
3.23244	6.44344
3.23043	6.37699
3.22841	6.3473
3.2264	6.33333
3.2244	6.30156
3.22239	6.3172
3.22039	6.23298
3.21839	6.21757
3.2164	6.2721
3.2144	6.27318
3.21241	6.25851
3.21042	6.35456
3.20844	6.3534
3.20645	6.26384
3.20447	6.26294
3.20249	6.27154
3.20051	6.13658
3.19854	6.17543
3.19657	6.36667
3.1946	6.39154
3.19263	6.44269
3.19067	6.3859
3.1887	6.28144
3.18674	6.27621
3.18479	6.27017
3.18283	6.19572
3.18088	6.22388
3.17893	6.26217
3.17698	6.27758
3.17504	6.33896
3.17309	6.36747
3.17115	6.27639
3.16921	6.30556
3.16728	6.33514
3.16534	6.25955
3.16341	6.2395
3.16148	6.16749
3.15956	6.21787
3.15763	6.30125
3.15571	6.26006
3.15379	6.27216
3.15187	6.27767
3.14996	6.20095
3.14805	6.17531
3.14614	6.2222
3.14423	6.33909
3.14232	6.36618
3.14042	6.26497
3.13852	6.29882
3.13662	6.4513
3.13472	6.40077
3.13283	6.32222
3.13094	6.31062
3.12905	6.24388
3.12716	6.25434
3.12528	6.28579
3.12339	6.35647
3.12151	6.39578
3.11964	6.35883
3.11776	6.31152
3.11589	6.39765
3.11401	6.3717
3.11214	6.21552
3.11028	6.23151
3.10841	6.24165
3.10655	6.26166
3.10469	6.27641
3.10283	6.29016
3.10098	6.31369
3.09912	6.32364
3.09727	6.32427
3.09542	6.19739
3.09358	6.2505
3.09173	6.37587
3.08989	6.37335
3.08805	6.44133
3.08621	6.45747
3.08437	6.3555
3.08254	6.25912
3.08071	6.15538
3.07888	6.07093
3.07705	6.09707
3.07523	6.22003
3.0734	6.36898
3.07158	6.46175
3.06977	6.4374
3.06795	6.38347
3.06613	6.25379
3.06432	6.16165
3.06251	6.1997
3.0607	6.33174
3.0589	6.33121
3.0571	6.27962
3.05529	6.31113
3.05349	6.34998
3.0517	6.34782
3.0499	6.31633
3.04811	6.26681
3.04632	6.27488
3.04453	6.21823
3.04274	6.11433
3.04096	6.1281
3.03918	6.14843
3.0374	6.16756
3.03562	6.29745
3.03384	6.31283
3.03207	6.26298
3.03029	6.19313
3.02852	6.30011
3.02676	6.4396
3.02499	6.35853
3.02323	6.24451
3.02146	6.16929
3.0197	6.26646
3.01795	6.32381
3.01619	6.16655
3.01444	6.09382
3.01269	6.19035
3.01094	6.31337
3.00919	6.2367
3.00744	6.0785
3.0057	6.04692
3.00396	6.06247
3.00222	6.10452
3.00048	6.21421
2.99875	6.23548
2.99701	6.1906
2.99528	6.20351
2.99355	6.28183
2.99183	6.25853
2.9901	6.20238
2.98838	6.12538
2.98666	6.13624
2.98494	6.20644
2.98322	6.27896
2.9815	6.36351
2.97979	6.3242
2.97808	6.34217
2.97637	6.32402
2.97466	6.17338
2.97295	6.09675
2.97125	6.16217
2.96955	6.21883
2.96785	6.00485
2.96615	5.95629
2.96446	6.18475
2.96276	6.27669
2.96107	6.26091
2.95938	6.25393
2.95769	6.24322
2.95601	6.11908
2.95432	6.02014
2.95264	5.94249
2.95096	6.00927
2.94928	6.16364
2.9476	6.19952
2.94593	6.10828
2.94425	6.05734
2.94258	6.05638
2.94092	6.12275
2.93925	6.26021
2.93758	6.10779
2.93592	5.92359
2.93426	5.9733
2.9326	6.13969
2.93094	6.16871
2.92928	6.14112
2.92763	6.23873
2.92598	6.25821
2.92433	6.13138
2.92268	5.98413
2.92103	6.00094
2.91939	6.14356
2.91775	6.17245
2.9161	6.15054
2.91447	6.09043
2.91283	5.97109
2.91119	6.10519
2.90956	6.20336
2.90793	6.17358
2.9063	6.27288
2.90467	6.2995
2.90304	6.1371
2.90142	6.14539
2.89979	6.18798
2.89817	6.06316
2.89656	5.95963
2.89494	6.00902
2.89332	6.0928
2.89171	6.15907
2.8901	6.21136
2.88849	6.20454
2.88688	6.20449
2.88527	6.2526
2.88367	6.39307
2.88206	6.50463
2.88046	6.41785
2.87886	6.25879
2.87727	6.24026
2.87567	6.35869
2.87408	6.33071
2.87248	6.38854
2.87089	6.4482
2.8693	6.45222
2.86772	6.49814
2.86613	6.55602
2.86455	6.56463
2.86297	6.50767
2.86139	6.4867
2.85981	6.4861
2.85823	6.50974
2.85666	6.48017
2.85508	6.43259
2.85351	6.54432
2.85194	6.7271
2.85038	6.64344
2.84881	6.62062
2.84724	6.69111
2.84568	6.68851
2.84412	6.76802
2.84256	6.76542
2.841	6.67062
2.83945	6.6962
2.83789	6.84018
2.83634	6.8314
2.83479	6.84247
2.83324	6.86264
2.83169	6.94461
2.83015	6.99544
2.82861	6.96338
2.82706	7.02291
2.82552	6.93574
2.82398	6.79692
2.82245	6.81778
2.82091	6.96574
2.81938	7.09333
2.81784	7.0918
2.81631	6.98826
2.81479	7.02159
2.81326	7.13966
2.81173	7.15217
2.81021	7.0811
2.80869	7.08135
2.80716	7.11466
2.80565	7.16546
2.80413	7.23545
2.80261	7.19481
2.8011	7.00315
2.79959	6.89474
2.79808	7.0219
2.79657	7.05539
2.79506	7.08583
2.79355	7.15316
2.79205	7.16339
2.79055	7.21329
2.78904	7.2289
2.78754	7.03281
2.78605	7.03753
2.78455	7.12905
2.78306	7.15149
2.78156	7.23916
2.78007	7.19143
2.77858	7.2007
2.77709	7.04616
2.77561	6.81753
2.77412	6.86889
2.77264	6.82407
2.77116	6.90498
2.76968	7.10999
2.7682	7.08206
2.76672	6.98376
2.76524	6.94731
2.76377	6.92813
2.7623	6.94739
2.76083	7.22354
2.75936	7.29571
2.75789	7.18399
2.75642	7.14181
2.75496	7.04106
2.7535	6.8468
2.75203	6.85719
2.75057	6.94506
2.74912	6.95684
2.74766	6.97974
2.7462	6.89503
2.74475	6.8671
2.7433	7.1415
2.74185	7.28782
2.7404	7.21074
2.73895	7.09876
2.7375	7.08032
2.73606	7.17236
2.73462	7.25635
2.73318	7.17549
2.73174	7.16465
2.7303	7.25071
2.72886	7.2618
2.72742	7.27653
2.72599	7.46357
2.72456	7.57669
2.72313	7.57476
2.7217	7.67206
2.72027	7.73877
2.71884	7.51349
2.71742	7.39801
2.71599	7.55544
2.71457	7.71161
2.71315	7.7775
2.71173	7.85467
2.71032	7.78465
2.7089	7.65704
2.70748	7.61722
2.70607	7.66097
2.70466	7.72119
2.70325	7.79938
2.70184	7.8763
2.70043	7.83471
2.69903	7.82551
2.69762	7.79961
2.69622	7.82636
2.69482	7.91739
2.69342	7.90542
2.69202	7.85009
2.69062	7.9528
2.68923	7.92244
2.68783	7.94586
2.68644	7.93818
2.68505	7.92757
2.68366	7.92994
2.68227	7.95351
2.68089	7.97619
2.6795	8.00757
2.67812	8.07598
2.67673	8.2519
2.67535	8.30414
2.67397	8.21968
2.6726	8.24783
2.67122	8.25335
2.66984	8.16582
2.66847	8.03154
2.6671	8.07759
2.66572	8.14267
2.66435	8.09156
2.66299	8.07521
2.66162	8.09719
2.66025	8.10639
2.65889	8.11766
2.65753	8.13487
2.65616	8.2002
2.65481	8.21477
2.65345	8.19185
2.65209	8.13134
2.65073	8.0431
2.64938	8.15404
2.64803	8.07996
2.64667	8.02743
2.64532	8.1578
2.64397	8.19329
2.64263	8.18475
2.64128	8.18523
2.63994	8.22583
2.63859	8.14363
2.63725	8.11398
2.63591	8.25384
2.63457	8.39027
2.63323	8.24448
2.6319	8.20784
2.63056	8.36941
2.62923	8.34553
2.62789	8.33797
2.62656	8.37129
2.62523	8.14983
2.6239	8.18478
2.62258	8.30459
2.62125	8.37644
2.61993	8.37806
2.6186	8.3921
2.61728	8.3848
2.61596	8.25484
2.61464	8.19845
2.61332	8.31079
2.61201	8.31315
2.61069	8.29265
2.60938	8.32613
2.60807	8.42001
2.60675	8.42017
2.60544	8.45258
2.60414	8.45746
2.60283	8.51095
2.60152	8.55884
2.60022	8.49074
2.59891	8.41486
2.59761	8.48925
2.59631	8.5271
2.59501	8.59741
2.59371	8.52406
2.59242	8.40882
2.59112	8.42795
2.58983	8.3616
2.58853	8.36815
2.58724	8.31409
2.58595	8.31547
2.58466	8.50819
2.58338	8.49241
2.58209	8.34437
2.5808	8.41393
2.57952	8.44505
2.57824	8.49669
2.57695	8.51051
2.57567	8.46365
2.5744	8.43867
2.57312	8.4204
2.57184	8.36537
2.57057	8.51339
2.56929	8.48852
2.56802	8.50721
2.56675	8.55581
2.56548	8.61998
2.56421	8.60023
2.56294	8.69139
2.56168	8.69609
2.56041	8.54323
2.55915	8.58951
2.55789	8.58898
2.55662	8.46278
2.55536	8.40263
2.5541	8.59351
2.55285	8.68143
2.55159	8.5664
2.55034	8.54913
2.54908	8.55662
2.54783	8.53836
2.54658	8.50609
2.54533	8.59259
2.54408	8.70762
2.54283	8.69052
2.54159	8.68856
2.54034	8.69814
2.5391	8.57822
2.53785	8.50071
2.53661	8.60806
2.53537	8.77216
2.53413	8.75287
2.53289	8.6474
2.53166	8.56714
2.53042	8.55681
2.52919	8.67075
2.52795	8.78988
2.52672	8.70553
2.52549	8.70662
2.52426	8.84422
2.52303	8.86852
2.52181	8.90618
2.52058	8.91797
2.51936	8.83568
2.51813	8.67654
2.51691	8.52563
2.51569	8.55046
2.51447	8.7555
2.51325	8.73704
2.51203	8.67926
2.51082	8.77981
2.5096	8.73666
2.50839	8.73325
2.50717	8.64611
2.50596	8.61848
2.50475	8.74935
2.50354	8.86167
2.50233	9.01739
2.50113	8.9358
2.49992	8.80146
2.49872	8.82311
2.49751	8.92205
2.49631	8.93641
2.49511	8.78302
2.49391	8.83165
2.49271	8.9333
2.49151	8.86327
2.49031	8.74029
2.48912	8.81493
2.48792	8.89703
2.48673	9.07636
2.48554	9.12424
2.48435	9.03812
2.48316	8.93611
2.48197	8.80549
2.48078	8.78746
2.4796	8.79789
2.47841	8.73989
2.47723	8.80826
2.47604	8.98735
2.47486	9.1091
2.47368	9.08746
2.4725	8.94765
2.47132	8.79256
2.47014	8.80984
2.46897	8.94374
2.46779	8.97222
2.46662	9.05126
2.46545	9.21413
2.46427	9.20793
2.4631	8.98024
2.46193	8.84862
2.46077	8.9687
2.4596	9.03537
2.45843	9.0778
2.45727	9.07834
2.4561	8.89076
2.45494	8.84784
2.45378	9.11473
2.45262	9.12291
2.45146	8.98184
2.4503	8.87161
2.44914	8.93032
2.44799	8.99592
2.44683	9.07871
2.44568	9.09167
2.44452	9.17406
2.44337	9.27013
2.44222	9.2864
2.44107	9.21482
2.43992	9.05384
2.43877	8.97607
2.43763	9.12582
2.43648	9.06615
2.43534	9.05066
2.43419	9.17932
2.43305	9.20556
2.43191	9.03513
2.43077	9.16202
2.42963	9.29903
2.42849	9.26344
2.42736	9.2627
2.42622	9.16077
2.42509	9.21367
2.42395	9.28689
2.42282	9.13002
2.42169	9.17191
2.42056	9.22743
2.41943	9.18968
2.4183	9.20254
2.41717	9.17311
2.41605	9.11273
2.41492	9.18229
2.4138	9.1883
2.41267	9.20682
2.41155	9.22802
2.41043	9.20538
2.40931	9.41437
2.40819	9.53077
2.40707	9.34905
2.40595	9.17945
2.40484	9.23244
2.40372	9.30481
2.40261	9.33031
2.4015	9.34563
2.40039	9.54486
2.39928	9.50704
2.39817	9.42982
2.39706	9.40207
2.39595	9.47779
2.39484	9.47286
2.39374	9.29003
2.39263	9.20182
2.39153	9.33103
2.39043	9.33789
2.38932	9.28248
2.38822	9.35898
2.38712	9.5318
2.38603	9.57284
2.38493	9.55543
2.38383	9.45463
2.38274	9.41518
2.38164	9.44639
2.38055	9.40819
2.37946	9.39945
2.37836	9.45021
2.37727	9.46537
2.37618	9.486
2.3751	9.53301
2.37401	9.49041
2.37292	9.47436
2.37184	9.65842
2.37075	9.75596
2.36967	9.75224
2.36859	9.60367
2.3675	9.54112
2.36642	9.50492
2.36534	9.53079
2.36427	9.53149
2.36319	9.3816
2.36211	9.26267
2.36104	9.46245
2.35996	9.62588
2.35889	9.72729
2.35781	9.64258
2.35674	9.40519
2.35567	9.57908
2.3546	9.72644
2.35353	9.53731
2.35247	9.46967
2.3514	9.44388
2.35033	9.49815
2.34927	9.71341
2.3482	9.79253
2.34714	9.72358
2.34608	9.67534
2.34502	9.53668
2.34396	9.45006
2.3429	9.49555
2.34184	9.74193
2.34078	9.85468
2.33973	9.74873
2.33867	9.54664
2.33762	9.72564
2.33656	9.83529
2.33551	9.68754
2.33446	9.63013
2.33341	9.72105
2.33236	9.76648
2.33131	9.66512
2.33026	9.60386
2.32922	9.7651
2.32817	9.90805
2.32712	9.91006
2.32608	9.98058
2.32504	9.89399
2.324	9.73324
2.32295	9.7202
2.32191	9.80769
2.32087	9.79673
2.31984	9.70808
2.3188	9.80283
2.31776	9.84636
2.31673	9.83675
2.31569	10.0913
2.31466	10.1412
2.31362	9.91861
2.31259	9.83252
2.31156	9.88119
2.31053	9.90614
2.3095	9.90618
2.30847	9.70256
2.30745	9.62718
2.30642	9.71289
2.3054	9.68449
2.30437	9.66747
2.30335	9.92829
2.30232	10.0822
2.3013	9.94053
2.30028	9.87384
2.29926	9.85441
2.29824	9.80882
2.29722	9.9608
2.29621	9.96057
2.29519	9.92187
2.29417	9.90625
2.29316	9.89984
2.29215	9.88541
2.29113	9.87343
2.29012	10.1725
2.28911	10.3087
2.2881	10.0819
2.28709	9.82163
2.28608	9.69561
2.28507	9.74666
2.28407	9.87543
2.28306	9.96529
2.28206	9.9676
2.28105	9.80999
2.28005	9.81661
2.27905	10.0788
2.27805	10.1341
2.27705	10.2686
2.27605	10.2301
2.27505	10.0687
2.27405	10.0245
2.27305	10.1088
2.27206	10.2885
2.27106	10.1796
2.27007	9.90827
2.26907	10.0174
2.26808	10.0843
2.26709	10.0189
2.2661	10.1656
2.26511	10.3597
2.26412	10.3073
2.26313	10.2356
2.26214	10.141
2.26116	10.1546
2.26017	10.201
2.25919	10.2117
2.2582	10.1324
2.25722	10.099
2.25624	10.2207
2.25526	10.266
2.25428	10.208
2.2533	10.2196
2.25232	10.2137
2.25134	10.2444
2.25036	10.3203
2.24939	10.438
2.24841	10.4102
2.24744	10.2776
2.24646	10.0969
2.24549	10.2183
2.24452	10.4552
2.24355	10.4606
2.24257	10.2451
2.24161	10.1407
2.24064	10.2245
2.23967	10.3747
2.2387	10.2387
2.23774	10.2231
2.23677	10.3749
2.23581	10.5818
2.23484	10.4282
2.23388	10.1883
2.23292	10.2156
2.23196	10.5359
2.231	10.7328
2.23004	10.4651
2.22908	10.3353
2.22812	10.3142
2.22716	10.289
2.22621	10.4218
2.22525	10.4097
2.2243	10.2758
2.22334	10.1928
2.22239	10.2527
2.22144	10.2983
2.22049	10.4136
2.21953	10.4997
2.21859	10.3581
2.21764	10.1865
2.21669	10.3275
2.21574	10.4746
2.21479	10.6126
2.21385	10.592
2.2129	10.3282
2.21196	10.1933
2.21102	10.3741
2.21007	10.4805
2.20913	10.5374
2.20819	10.6124
2.20725	10.6421
2.20631	10.5899
2.20537	10.6503
2.20444	10.5891
2.2035	10.4745
2.20256	10.4392
2.20163	10.4885
2.20069	10.5007
2.19976	10.5235
2.19883	10.6421
2.19789	10.7548
2.19696	10.7174
2.19603	10.6273
2.1951	10.4672
2.19417	10.6163
2.19325	10.6812
2.19232	10.6142
2.19139	10.6023
2.19047	10.585
2.18954	10.6966
2.18862	10.8495
2.18769	10.6936
2.18677	10.6587
2.18585	10.7387
2.18493	10.5702
2.18401	10.4442
2.18309	10.5954
2.18217	10.7673
2.18125	10.7929
2.18033	10.7218
2.17942	10.5669
2.1785	10.5703
2.17759	10.7365
2.17667	10.7758
2.17576	10.65
2.17485	10.8384
2.17393	10.9261
2.17302	10.745
2.17211	10.6349
2.1712	10.6089
2.17029	10.6283
2.16939	10.7575
2.16848	10.7814
2.16757	10.8125
2.16667	10.9771
2.16576	10.9185
2.16486	10.8414
2.16395	10.8625
2.16305	10.7528
2.16215	10.8049
2.16125	10.9826
2.16035	10.8866
2.15945	10.6856
2.15855	10.5888
2.15765	10.6564
2.15675	10.7375
2.15586	10.794
2.15496	10.7408
2.15406	10.5658
2.15317	10.5616
2.15228	10.9498
2.15138	11.1448
2.15049	10.9383
2.1496	10.9922
2.14871	11.1634
2.14782	11.1211
2.14693	10.9784
2.14604	11.0209
2.14515	11.1813
2.14427	10.9419
2.14338	10.8805
2.14249	11.0211
2.14161	10.8332
2.14072	10.7456
2.13984	10.8757
2.13896	10.9188
2.13808	10.9697
2.13719	11.0571
2.13631	11.2263
2.13543	11.3983
2.13455	11.1526
2.13368	10.9044
2.1328	11.0048
2.13192	10.9611
2.13105	10.9103
2.13017	10.9557
2.1293	11.0702
2.12842	11.1276
2.12755	11.1224
2.12668	11.0113
2.1258	10.8782
2.12493	11.0869
2.12406	11.3091
2.12319	11.235
2.12232	10.9836
2.12145	10.7926
2.12059	10.8015
2.11972	11.0338
2.11885	11.1252
2.11799	11.1282
2.11712	11.3317
2.11626	11.316
2.1154	11.2283
2.11453	11.1302
2.11367	11.0249
2.11281	11.1334
2.11195	11.2252
2.11109	10.7939
2.11023	10.7802
2.10937	11.16
2.10851	11.4325
2.10766	11.4017
2.1068	11.2033
2.10594	11.2449
2.10509	11.2732
2.10423	11.2035
2.10338	11.2237
2.10253	11.3858
2.10168	11.4758
2.10082	11.5059
2.09997	11.379
2.09912	11.3368
2.09827	11.3106
2.09742	11.3023
2.09658	11.6076
2.09573	11.6255
2.09488	11.331
2.09404	11.2124
2.09319	11.147
2.09235	11.0733
2.0915	11.1669
2.09066	11.2907
2.08982	11.4462
2.08897	11.5923
2.08813	11.7559
2.08729	11.3205
2.08645	11.1555
2.08561	11.5397
2.08477	11.7888
2.08394	11.6831
2.0831	11.3728
2.08226	10.9045
2.08143	11.1788
2.08059	11.5472
2.07976	11.7297
2.07892	11.2999
2.07809	11.1752
2.07726	11.2718
2.07643	11.312
2.07559	11.4863
2.07476	11.3407
2.07393	11.4373
2.0731	11.7993
2.07228	11.6651
2.07145	11.5397
2.07062	11.7599
2.06979	11.5536
2.06897	11.4836
2.06814	12.0133
2.06732	11.7597
2.06649	11.3618
2.06567	11.4522
2.06485	11.6653
2.06403	11.7452
2.0632	11.5962
2.06238	11.5036
2.06156	11.4979
2.06074	11.2046
2.05993	11.2548
2.05911	11.7071
2.05829	11.9431
2.05747	11.8656
2.05666	11.6992
2.05584	11.6595
2.05503	11.65
2.05421	11.5869
2.0534	11.2157
2.05259	11.1616
2.05177	11.5015
2.05096	11.6067
2.05015	11.5091
2.04934	11.6496
2.04853	11.5904
2.04772	11.6024
2.04691	11.8144
2.04611	11.7799
2.0453	11.7206
2.04449	11.7751
2.04369	11.587
2.04288	11.5839
2.04208	11.5687
2.04127	11.6298
2.04047	11.6361
2.03967	11.6346
2.03886	11.8395
2.03806	11.8456
2.03726	11.4886
2.03646	11.484
2.03566	11.6504
2.03486	11.6771
2.03407	11.782
2.03327	11.9469
2.03247	11.9547
2.03167	11.7896
2.03088	11.6466
2.03008	11.501
2.02929	11.52
2.0285	11.6345
2.0277	11.9822
2.02691	12.0104
2.02612	11.8536
2.02533	11.7283
2.02453	11.821
2.02374	11.8477
2.02295	11.7919
2.02217	11.9977
2.02138	12.0974
2.02059	11.9433
2.0198	11.9226
2.01902	12.0112
2.01823	11.9969
2.01744	11.9145
2.01666	11.9572
2.01588	12.0214
2.01509	11.8747
2.01431	11.7466
2.01353	11.8199
2.01275	11.7654
2.01196	11.7636
2.01118	11.9749
2.0104	11.9276
2.00963	11.8081
2.00885	11.6949
2.00807	11.8094
2.00729	11.8645
2.00651	11.7675
2.00574	11.835
2.00496	12.0054
2.00419	11.8628
2.00341	11.6205
2.00264	11.9593
2.00187	12.1775
2.00109	12.1421
2.00032	11.9379
