Name: Chalcocite Cu_2S
Type: Mineral
Class: Sulfides
Subclass: 
Particle Size: 125-500um
Sample No.: S-8A
Owner: JPL
Wavelength range: IR
Origin: USA, Alaska, Kennecott
Collected by Burmico
Description: 





Measurement: Hemispherical reflectance
First Column: X
Second Column: Y
X Units:  Wavelength (micrometers)
Y Units:  Reflectance (percent)
First X Value: 15.3853
Last X Value: 2.00032
Number of X Values: 2256
Additional information: s08aa.txt
 
15.3853	12.4909
15.3397	12.4014
15.2945	12.1906
15.2495	12.101
15.2048	12.3275
15.1603	12.4134
15.1161	12.3619
15.0722	12.4835
15.0285	12.3976
14.9851	12.1646
14.9419	12.0875
14.8989	12.1469
14.8563	12.0864
14.8138	12.1356
14.7716	12.1734
14.7296	12.2279
14.6879	12.0296
14.6464	11.966
14.6052	12.1199
14.5641	12.2529
14.5233	12.1511
14.4828	12.1104
14.4424	12.2689
14.4023	12.276
14.3624	12.2209
14.3227	12.2897
14.2833	12.3216
14.244	12.3208
14.205	12.3203
14.1662	12.4622
14.1276	12.5032
14.0892	12.3083
14.051	12.2585
14.0131	12.2157
13.9753	12.0894
13.9377	12.1177
13.9004	12.2115
13.8632	12.2112
13.8262	12.3482
13.7895	12.3601
13.7529	12.3322
13.7165	12.324
13.6803	12.2896
13.6443	12.3537
13.6085	12.3219
13.5729	12.2636
13.5374	12.2049
13.5022	12.2135
13.4671	12.1628
13.4322	11.9953
13.3975	12.0729
13.363	12.1168
13.3286	12.2539
13.2944	12.3212
13.2604	12.3565
13.2266	12.313
13.193	12.2033
13.1595	12.1613
13.1262	12.173
13.093	12.1413
13.06	12.1101
13.0272	12.258
12.9946	12.3448
12.9621	12.2775
12.9298	12.2315
12.8976	12.0776
12.8656	12.1166
12.8337	12.2618
12.8021	12.2558
12.7705	12.2006
12.7391	12.1251
12.7079	12.0308
12.6769	12.0502
12.6459	12.0771
12.6152	12.1685
12.5845	12.3592
12.5541	12.4147
12.5238	12.3115
12.4936	12.1886
12.4635	12.1834
12.4337	12.1297
12.4039	12.0086
12.3743	12.05
12.3448	12.1795
12.3155	12.1296
12.2863	12.04
12.2573	12.0317
12.2284	12.0095
12.1996	12.0413
12.171	12.0623
12.1425	12.0684
12.1141	12.194
12.0859	12.2695
12.0578	12.06
12.0298	11.9211
12.0019	11.9223
11.9742	11.9325
11.9466	11.9312
11.9192	11.9954
11.8918	11.9607
11.8646	11.943
11.8375	11.9848
11.8106	12.0282
11.7837	12.0075
11.757	12.0882
11.7304	12.2147
11.7039	12.0565
11.6776	12.0012
11.6513	12.0667
11.6252	12.1448
11.5992	12.2533
11.5733	12.129
11.5475	12.0036
11.5219	11.9552
11.4963	11.9653
11.4709	12.0298
11.4455	12.0392
11.4203	11.9979
11.3952	11.9267
11.3702	11.9393
11.3454	11.9838
11.3206	12.0617
11.2959	12.1299
11.2714	12.1131
11.2469	12.1141
11.2226	12.0486
11.1983	12.0374
11.1742	12.1229
11.1502	12.0917
11.1263	12.0803
11.1024	12.0895
11.0787	12.1211
11.0551	12.136
11.0316	12.0889
11.0081	12.1139
10.9848	12.1629
10.9616	12.1955
10.9385	12.1043
10.9154	12.0416
10.8925	12.0036
10.8697	12.0285
10.8469	12.1292
10.8243	12.1232
10.8017	12.1161
10.7793	12.1472
10.7569	12.0959
10.7346	12.1399
10.7125	12.212
10.6904	12.1472
10.6684	12.0169
10.6465	11.9103
10.6247	11.9299
10.6029	12.0237
10.5813	12.0607
10.5597	12.0529
10.5383	12.0907
10.5169	12.1465
10.4956	12.0764
10.4744	12.0696
10.4533	12.1197
10.4323	12.0654
10.4113	12.0738
10.3904	12.0674
10.3697	12.1318
10.349	12.1169
10.3284	12.1235
10.3078	12.3062
10.2874	12.3054
10.267	12.2608
10.2467	12.1109
10.2265	12.1226
10.2064	12.2628
10.1863	12.2845
10.1663	12.2207
10.1464	12.2822
10.1266	12.2751
10.1069	12.2414
10.0872	12.3862
10.0676	12.447
10.0481	12.398
10.0287	12.3744
10.0093	12.2874
9.99005	12.3686
9.97084	12.5055
9.95169	12.4526
9.93263	12.3952
9.91364	12.3374
9.89472	12.3095
9.87587	12.3477
9.8571	12.5619
9.83839	12.6761
9.81976	12.5537
9.80119	12.4872
9.78271	12.4724
9.76428	12.474
9.74592	12.526
9.72764	12.5839
9.70943	12.5392
9.69128	12.5504
9.6732	12.5811
9.65518	12.774
9.63724	12.8021
9.61935	12.7302
9.60155	12.9027
9.5838	12.9112
9.56611	12.7562
9.5485	12.6343
9.53094	12.6144
9.51345	12.6351
9.49604	12.7033
9.47867	12.7125
9.46137	12.6518
9.44414	12.6499
9.42697	12.7411
9.40986	12.81
9.39281	12.8204
9.37583	12.8425
9.35891	12.7832
9.34204	12.7277
9.32524	12.8482
9.3085	12.9433
9.29182	12.9752
9.27519	12.9405
9.25863	12.9652
9.24213	13.0269
9.22568	13.0891
9.2093	13.0397
9.19297	12.9854
9.17669	13.0384
9.16048	13.1718
9.14433	13.1408
9.12823	13.066
9.11218	13.0485
9.0962	13.072
9.08027	13.0538
9.06439	13.0274
9.04858	12.9923
9.03281	12.9393
9.0171	12.9643
9.00145	13.0631
8.98585	13.1495
8.9703	13.0375
8.9548	12.897
8.93937	12.7795
8.92398	12.7624
8.90865	12.7461
8.89337	12.803
8.87814	12.9243
8.86296	12.8802
8.84784	12.9132
8.83277	12.8977
8.81774	12.7196
8.80277	12.7502
8.78786	12.8057
8.77298	12.7298
8.75816	12.6477
8.7434	12.6257
8.72868	12.645
8.714	12.6156
8.69938	12.5259
8.68481	12.4171
8.67029	12.364
8.65581	12.3409
8.64139	12.3501
8.62701	12.2876
8.61268	12.2694
8.5984	12.3545
8.58416	12.4521
8.56997	12.4165
8.55583	12.3818
8.54174	12.382
8.52769	12.373
8.51368	12.4029
8.49973	12.3879
8.48582	12.2544
8.47195	12.2153
8.45813	12.1904
8.44436	12.1734
8.43062	12.1779
8.41693	12.1938
8.4033	12.2633
8.3897	12.2709
8.37614	12.1969
8.36264	12.2375
8.34917	12.335
8.33574	12.3653
8.32236	12.2852
8.30903	12.2372
8.29573	12.2102
8.28248	12.1967
8.26927	12.2152
8.2561	12.1942
8.24298	12.2181
8.2299	12.1177
8.21685	12.0434
8.20385	12.0774
8.19089	12.0726
8.17797	12.1391
8.16509	12.1174
8.15225	12.1281
8.13946	12.1869
8.1267	12.139
8.11398	12.0678
8.10131	11.9828
8.08867	11.9142
8.07606	11.8872
8.0635	11.9091
8.05099	11.8956
8.0385	11.9099
8.02606	11.8355
8.01366	11.7967
8.00129	11.8148
7.98896	11.8198
7.97667	11.8985
7.96442	11.8438
7.9522	11.7316
7.94002	11.7319
7.92788	11.706
7.91578	11.7336
7.90371	11.7904
7.89168	11.7638
7.87969	11.6559
7.86773	11.6261
7.85581	11.6133
7.84392	11.667
7.83207	11.7188
7.82026	11.6689
7.80849	11.6073
7.79674	11.6478
7.78503	11.6736
7.77337	11.7154
7.76173	11.7732
7.75012	11.7439
7.73856	11.6159
7.72703	11.5528
7.71553	11.5985
7.70406	11.7145
7.69263	11.7441
7.68123	11.636
7.66987	11.5637
7.65855	11.5885
7.64725	11.6048
7.63598	11.6737
7.62475	11.6819
7.61356	11.6171
7.60239	11.6072
7.59126	11.6489
7.58017	11.6518
7.5691	11.6814
7.55806	11.6495
7.54707	11.5831
7.5361	11.6291
7.52516	11.6593
7.51425	11.6242
7.50338	11.6099
7.49253	11.6132
7.48172	11.6116
7.47094	11.5993
7.46019	11.5724
7.44947	11.5356
7.43879	11.5954
7.42813	11.6208
7.4175	11.6351
7.4069	11.6961
7.39634	11.6425
7.3858	11.5517
7.37529	11.5527
7.36482	11.5408
7.35437	11.57
7.34396	11.6429
7.33357	11.6544
7.32321	11.5513
7.31288	11.5182
7.30258	11.6268
7.29231	11.6357
7.28207	11.5975
7.27185	11.628
7.26167	11.6216
7.25152	11.5769
7.24139	11.5235
7.23129	11.5599
7.22122	11.5493
7.21117	11.5467
7.20116	11.5422
7.19117	11.4942
7.18121	11.5718
7.17128	11.6371
7.16137	11.6088
7.1515	11.6264
7.14164	11.6724
7.13182	11.6919
7.12203	11.6526
7.11225	11.5349
7.10251	11.5089
7.0928	11.6015
7.08311	11.6932
7.07344	11.6552
7.06381	11.5896
7.0542	11.6671
7.04461	11.6848
7.03506	11.6124
7.02552	11.6159
7.01601	11.6108
7.00653	11.5934
6.99708	11.5329
6.98765	11.4282
6.97824	11.4408
6.96886	11.5615
6.95951	11.6087
6.95018	11.5258
6.94087	11.4895
6.9316	11.397
6.92234	11.4737
6.91311	11.5952
6.90391	11.6095
6.89473	11.4981
6.88557	11.4919
6.87644	11.5276
6.86733	11.6769
6.85824	11.616
6.84918	11.4433
6.84015	11.4949
6.83114	11.6109
6.82215	11.59
6.81319	11.4875
6.80424	11.4553
6.79532	11.5232
6.78643	11.5612
6.77756	11.5144
6.76871	11.4631
6.75989	11.4499
6.75109	11.3949
6.74231	11.3351
6.73355	11.37
6.72482	11.4408
6.71611	11.5307
6.70742	11.5934
6.69875	11.518
6.69011	11.4823
6.68149	11.4614
6.67289	11.4103
6.66431	11.347
6.65576	11.4213
6.64722	11.5738
6.63871	11.6837
6.63022	11.5949
6.62175	11.429
6.61331	11.392
6.60488	11.3503
6.59648	11.4203
6.5881	11.4729
6.57974	11.509
6.5714	11.6059
6.56308	11.555
6.55478	11.498
6.54651	11.4173
6.53825	11.3465
6.53001	11.3646
6.5218	11.3847
6.51361	11.4114
6.50544	11.4808
6.49729	11.6101
6.48915	11.6193
6.48104	11.5703
6.47295	11.5332
6.46488	11.4923
6.45683	11.4283
6.4488	11.3753
6.44079	11.3434
6.4328	11.4551
6.42482	11.6213
6.41687	11.7776
6.40894	11.7233
6.40103	11.4879
6.39314	11.4257
6.38526	11.4214
6.37741	11.465
6.36957	11.5626
6.36176	11.4791
6.35396	11.3685
6.34618	11.4474
6.33843	11.4152
6.33069	11.3215
6.32297	11.2854
6.31527	11.3282
6.30758	11.3939
6.29992	11.3798
6.29227	11.3417
6.28465	11.3364
6.27704	11.43
6.26945	11.3779
6.26188	11.3109
6.25432	11.3263
6.24679	11.3876
6.23927	11.3185
6.23177	11.2814
6.22429	11.3111
6.21683	11.3032
6.20938	11.3098
6.20195	11.353
6.19454	11.3263
6.18715	11.3404
6.17978	11.2867
6.17242	11.2768
6.16508	11.3961
6.15776	11.3929
6.15045	11.275
6.14317	11.3262
6.1359	11.3992
6.12864	11.3782
6.12141	11.3817
6.11419	11.4378
6.10699	11.3418
6.0998	11.2377
6.09263	11.2192
6.08549	11.2843
6.07835	11.4596
6.07123	11.5515
6.06413	11.3987
6.05705	11.411
6.04998	11.6683
6.04293	11.5142
6.0359	11.3208
6.02888	11.2467
6.02187	11.2574
6.01489	11.3
6.00792	11.3402
6.00096	11.2888
5.99403	11.3436
5.98711	11.3176
5.9802	11.2291
5.97331	11.272
5.96644	11.2929
5.95958	11.2104
5.95274	11.2126
5.94591	11.2862
5.9391	11.4148
5.9323	11.3717
5.92552	11.2611
5.91876	11.1495
5.91201	11.1183
5.90528	11.2087
5.89856	11.3658
5.89186	11.3064
5.88517	11.2929
5.8785	11.2976
5.87184	11.2317
5.8652	11.2474
5.85857	11.2397
5.85196	11.1942
5.84536	11.1397
5.83878	11.1292
5.83221	11.1443
5.82566	11.2336
5.81912	11.2414
5.81259	11.0996
5.80608	11.0663
5.79959	11.1472
5.79311	11.1601
5.78665	11.1274
5.78019	11.094
5.77376	11.1674
5.76734	11.3531
5.76093	11.2854
5.75453	11.1577
5.74815	11.1506
5.74179	11.095
5.73543	11.0556
5.7291	11.1147
5.72277	11.1921
5.71646	11.1493
5.71017	11.0924
5.70389	10.9645
5.69762	10.8964
5.69136	10.9928
5.68513	11.0724
5.6789	11.0502
5.67268	10.9865
5.66648	10.9402
5.6603	10.9622
5.65413	10.9464
5.64797	10.9474
5.64182	11.0039
5.63569	10.9692
5.62957	10.9016
5.62347	10.8818
5.61737	10.897
5.61129	10.8875
5.60522	10.9358
5.59917	10.924
5.59313	10.9193
5.5871	11.0136
5.58109	11.1445
5.57509	11.0594
5.5691	10.8578
5.56312	10.8136
5.55716	10.8886
5.55121	10.9408
5.54528	10.9262
5.53935	10.8717
5.53344	10.7759
5.52754	10.7727
5.52166	10.8226
5.51578	10.8582
5.50992	10.8401
5.50407	10.8687
5.49823	10.8721
5.49241	10.9003
5.4866	10.9091
5.4808	10.902
5.47501	10.8815
5.46923	10.8845
5.46347	10.8689
5.45772	10.856
5.45198	10.8527
5.44625	10.8333
5.44054	10.8229
5.43484	10.7917
5.42914	10.7716
5.42347	10.8439
5.4178	10.8088
5.41214	10.775
5.4065	10.8224
5.40087	10.8001
5.39525	10.7915
5.38964	10.7697
5.38404	10.8179
5.37846	10.8411
5.37288	10.7717
5.36732	10.746
5.36177	10.8338
5.35623	10.899
5.35071	10.8719
5.34519	10.7909
5.33968	10.7827
5.33419	10.8612
5.32871	10.8208
5.32324	10.7703
5.31778	10.8062
5.31233	10.7906
5.30689	10.7564
5.30147	10.681
5.29605	10.6775
5.29065	10.6917
5.28525	10.6277
5.27987	10.6085
5.2745	10.6494
5.26914	10.7078
5.26379	10.7233
5.25845	10.7038
5.25312	10.7465
5.24781	10.7979
5.2425	10.754
5.23721	10.7317
5.23192	10.7234
5.22665	10.8032
5.22138	10.8811
5.21613	10.8407
5.21089	10.8082
5.20566	10.6481
5.20044	10.5767
5.19522	10.7204
5.19002	10.7685
5.18483	10.7624
5.17965	10.7474
5.17448	10.6876
5.16933	10.7065
5.16418	10.7522
5.15904	10.7056
5.15391	10.6406
5.14879	10.7002
5.14368	10.756
5.13859	10.7283
5.1335	10.643
5.12842	10.6629
5.12335	10.738
5.1183	10.7405
5.11325	10.6922
5.10821	10.6837
5.10318	10.6601
5.09817	10.5748
5.09316	10.5515
5.08816	10.6352
5.08317	10.6982
5.07819	10.7278
5.07322	10.6731
5.06826	10.6666
5.06331	10.6986
5.05837	10.6782
5.05344	10.6882
5.04852	10.6586
5.04361	10.6563
5.03871	10.65
5.03382	10.703
5.02894	10.7108
5.02406	10.6823
5.0192	10.6473
5.01435	10.5913
5.0095	10.6171
5.00467	10.6181
4.99984	10.6099
4.99502	10.6131
4.99021	10.6087
4.98542	10.6846
4.98063	10.7228
4.97585	10.6934
4.97108	10.6705
4.96632	10.6324
4.96156	10.6121
4.95682	10.5776
4.95209	10.504
4.94736	10.5393
4.94264	10.6096
4.93794	10.6252
4.93324	10.6635
4.92855	10.6711
4.92387	10.6414
4.9192	10.5942
4.91453	10.5292
4.90988	10.5398
4.90524	10.5936
4.9006	10.666
4.89597	10.6456
4.89135	10.6152
4.88674	10.598
4.88214	10.5959
4.87755	10.6076
4.87296	10.6918
4.86839	10.6736
4.86382	10.5992
4.85926	10.5374
4.85471	10.542
4.85017	10.6262
4.84564	10.6775
4.84111	10.7061
4.8366	10.6399
4.83209	10.6092
4.82759	10.6038
4.8231	10.5625
4.81862	10.5413
4.81415	10.5689
4.80968	10.656
4.80522	10.6819
4.80077	10.5802
4.79633	10.5435
4.7919	10.5425
4.78747	10.5223
4.78306	10.5673
4.77865	10.5941
4.77425	10.5597
4.76986	10.5237
4.76547	10.5136
4.7611	10.4934
4.75673	10.4781
4.75237	10.5462
4.74802	10.5828
4.74367	10.5688
4.73934	10.51
4.73501	10.4906
4.73069	10.5538
4.72638	10.6572
4.72207	10.6169
4.71777	10.4646
4.71348	10.4618
4.7092	10.5483
4.70493	10.5217
4.70066	10.4588
4.69641	10.5171
4.69216	10.5585
4.68791	10.4777
4.68368	10.4471
4.67945	10.4467
4.67523	10.4137
4.67102	10.4997
4.66682	10.5118
4.66262	10.5002
4.65843	10.5364
4.65425	10.5524
4.65007	10.5334
4.64591	10.474
4.64175	10.4518
4.6376	10.4912
4.63345	10.4433
4.62932	10.3458
4.62519	10.3749
4.62106	10.4846
4.61695	10.5038
4.61284	10.4222
4.60874	10.3889
4.60465	10.3509
4.60056	10.3943
4.59648	10.422
4.59241	10.4121
4.58835	10.4238
4.58429	10.4566
4.58024	10.4359
4.5762	10.4709
4.57216	10.5015
4.56814	10.4991
4.56411	10.4388
4.5601	10.4141
4.55609	10.3832
4.55209	10.4089
4.5481	10.4073
4.54411	10.3485
4.54013	10.3449
4.53616	10.3774
4.5322	10.3818
4.52824	10.3494
4.52429	10.3274
4.52034	10.2853
4.51641	10.3038
4.51247	10.3158
4.50855	10.3694
4.50463	10.4219
4.50072	10.3907
4.49682	10.349
4.49292	10.3278
4.48903	10.3444
4.48515	10.3679
4.48127	10.3147
4.4774	10.2817
4.47354	10.324
4.46968	10.3715
4.46584	10.3412
4.46199	10.3262
4.45815	10.2887
4.45432	10.2626
4.4505	10.2746
4.44668	10.2805
4.44287	10.326
4.43907	10.3085
4.43527	10.3396
4.43148	10.3126
4.4277	10.2387
4.42392	10.3242
4.42015	10.3053
4.41638	10.2455
4.41262	10.227
4.40887	10.2682
4.40513	10.3258
4.40139	10.3328
4.39765	10.3388
4.39393	10.3633
4.39021	10.2796
4.38649	10.1905
4.38278	10.2096
4.37908	10.225
4.37539	10.2064
4.3717	10.1835
4.36801	10.2346
4.36434	10.2685
4.36067	10.2209
4.357	10.214
4.35335	10.2649
4.34969	10.2889
4.34605	10.2814
4.34241	10.2618
4.33877	10.2858
4.33514	10.2399
4.33152	10.2322
4.32791	10.2899
4.3243	10.2837
4.32069	10.2554
4.3171	10.2382
4.31351	10.2406
4.30992	10.1941
4.30634	10.1802
4.30277	10.2487
4.2992	10.2113
4.29564	10.1977
4.29208	10.2707
4.28853	10.2922
4.28499	10.292
4.28145	10.2477
4.27792	10.1815
4.27439	10.1752
4.27087	10.1791
4.26735	10.1626
4.26384	10.1059
4.26034	10.0971
4.25684	10.1954
4.25335	10.1801
4.24986	10.1309
4.24638	10.2056
4.24291	10.2352
4.23944	10.1963
4.23598	10.2061
4.23252	10.2568
4.22906	10.3044
4.22562	10.2672
4.22218	10.2001
4.21874	10.1593
4.21531	10.142
4.21189	10.1927
4.20847	10.185
4.20506	10.1379
4.20165	10.1209
4.19825	10.1274
4.19485	10.0695
4.19146	10.018
4.18807	10.1144
4.18469	10.1639
4.18132	10.1832
4.17795	10.1454
4.17458	10.1529
4.17123	10.198
4.16787	10.1741
4.16453	10.0909
4.16118	10.0397
4.15785	10.0683
4.15451	10.0686
4.15119	10.0406
4.14787	10.0763
4.14455	10.0905
4.14124	10.0731
4.13794	10.1236
4.13464	10.1369
4.13134	10.1284
4.12805	10.1352
4.12477	10.0677
4.12149	9.98222
4.11822	10.0183
4.11495	10.0375
4.11168	9.9843
4.10843	9.97914
4.10517	10.0145
4.10192	10.075
4.09868	10.1204
4.09545	10.0962
4.09221	10.0157
4.08899	9.98404
4.08576	9.9042
4.08255	9.92452
4.07933	9.99229
4.07613	9.97126
4.07292	9.98742
4.06973	9.99488
4.06654	9.9965
4.06335	9.97993
4.06017	9.90741
4.05699	9.98667
4.05382	10.0137
4.05065	9.93534
4.04749	9.90813
4.04433	9.91454
4.04118	9.98258
4.03803	9.96276
4.03489	9.92591
4.03175	10.018
4.02862	10.0004
4.02549	9.9952
4.02237	10.0173
4.01925	9.95671
4.01614	9.92228
4.01303	9.97115
4.00993	10.0526
4.00683	10.055
4.00373	9.98514
4.00064	9.97558
3.99756	10.0396
3.99448	10.003
3.9914	10.0015
3.98833	9.92983
3.98527	9.94422
3.98221	9.98271
3.97915	9.96638
3.9761	9.99086
3.97305	9.95614
3.97001	9.91635
3.96697	9.91605
3.96394	9.96393
3.96091	9.89605
3.95789	9.82103
3.95487	9.85847
3.95186	9.88484
3.94885	9.92713
3.94584	9.9717
3.94284	9.95941
3.93984	9.82242
3.93685	9.80378
3.93386	9.8943
3.93088	9.88725
3.9279	9.81727
3.92493	9.8477
3.92196	9.86952
3.919	9.89682
3.91604	9.92248
3.91308	9.91253
3.91013	9.8509
3.90718	9.83107
3.90424	9.84046
3.9013	9.85279
3.89837	9.86191
3.89544	9.87036
3.89252	9.88457
3.8896	9.91113
3.88668	9.84965
3.88377	9.82808
3.88086	9.84148
3.87796	9.80741
3.87506	9.79048
3.87217	9.86863
3.86928	9.8368
3.86639	9.79998
3.86351	9.85397
3.86064	9.9066
3.85776	9.87177
3.8549	9.81903
3.85203	9.83383
3.84917	9.86916
3.84631	9.8381
3.84346	9.75622
3.84062	9.65157
3.83777	9.687
3.83494	9.79665
3.8321	9.80261
3.82927	9.71871
3.82644	9.75053
3.82362	9.83625
3.82081	9.93253
3.81799	9.88213
3.81518	9.82486
3.81238	9.8544
3.80958	9.8339
3.80678	9.79157
3.80399	9.76685
3.8012	9.78574
3.79841	9.78771
3.79563	9.78875
3.79286	9.7335
3.79008	9.75201
3.78731	9.77126
3.78455	9.70826
3.78179	9.69733
3.77903	9.73734
3.77628	9.74123
3.77353	9.73365
3.77079	9.71754
3.76805	9.79149
3.76531	9.82548
3.76258	9.83713
3.75985	9.86988
3.75713	9.81036
3.7544	9.749
3.75169	9.80085
3.74898	9.85917
3.74627	9.84794
3.74356	9.76302
3.74086	9.75372
3.73816	9.76549
3.73547	9.67333
3.73278	9.66154
3.7301	9.67585
3.72741	9.63215
3.72474	9.66665
3.72206	9.7105
3.71939	9.67898
3.71673	9.66438
3.71406	9.71913
3.71141	9.66017
3.70875	9.63498
3.7061	9.65641
3.70345	9.62845
3.70081	9.72827
3.69817	9.77474
3.69553	9.7459
3.6929	9.7499
3.69027	9.71231
3.68765	9.67573
3.68503	9.6189
3.68241	9.64607
3.6798	9.64209
3.67719	9.5846
3.67458	9.55569
3.67198	9.63512
3.66938	9.62998
3.66678	9.57618
3.66419	9.63178
3.66161	9.68444
3.65902	9.71724
3.65644	9.69961
3.65387	9.61777
3.65129	9.60406
3.64872	9.56882
3.64616	9.57216
3.64359	9.64565
3.64103	9.60119
3.63848	9.53577
3.63593	9.60249
3.63338	9.70374
3.63084	9.65485
3.6283	9.51886
3.62576	9.48217
3.62322	9.56986
3.62069	9.69375
3.61817	9.6987
3.61564	9.63318
3.61312	9.66388
3.61061	9.7297
3.6081	9.70094
3.60559	9.59209
3.60308	9.51303
3.60058	9.55147
3.59808	9.60618
3.59558	9.56769
3.59309	9.50164
3.59061	9.45977
3.58812	9.51818
3.58564	9.65008
3.58316	9.72219
3.58069	9.66962
3.57822	9.60116
3.57575	9.57744
3.57328	9.57708
3.57082	9.58865
3.56836	9.60165
3.56591	9.59347
3.56346	9.5622
3.56101	9.6081
3.55857	9.5678
3.55613	9.45873
3.55369	9.44594
3.55126	9.46732
3.54883	9.47821
3.5464	9.49784
3.54397	9.59368
3.54155	9.75508
3.53914	9.70048
3.53672	9.54759
3.53431	9.61136
3.5319	9.68596
3.5295	9.66907
3.5271	9.53062
3.5247	9.43505
3.52231	9.4772
3.51991	9.50969
3.51753	9.61404
3.51514	9.66495
3.51276	9.61994
3.51038	9.57901
3.50801	9.62864
3.50563	9.5968
3.50327	9.54087
3.5009	9.56762
3.49854	9.57025
3.49618	9.49735
3.49382	9.50523
3.49147	9.47317
3.48912	9.40222
3.48677	9.40344
3.48443	9.47724
3.48209	9.50084
3.47975	9.45451
3.47742	9.47056
3.47509	9.55816
3.47276	9.53204
3.47044	9.43834
3.46812	9.44801
3.4658	9.56817
3.46348	9.60953
3.46117	9.52484
3.45886	9.4472
3.45656	9.46249
3.45425	9.5265
3.45195	9.5091
3.44966	9.51359
3.44736	9.43163
3.44507	9.37807
3.44279	9.43465
3.4405	9.40484
3.43822	9.35348
3.43594	9.46511
3.43367	9.57412
3.43139	9.54103
3.42912	9.59096
3.42686	9.56999
3.42459	9.46822
3.42233	9.45024
3.42007	9.5138
3.41782	9.42389
3.41557	9.37789
3.41332	9.46016
3.41108	9.42364
3.40883	9.40677
3.40659	9.46175
3.40435	9.39297
3.40212	9.40999
3.39989	9.46338
3.39766	9.48008
3.39544	9.45029
3.39322	9.3835
3.391	9.37532
3.38878	9.43971
3.38657	9.55957
3.38436	9.54577
3.38215	9.55342
3.37994	9.51863
3.37774	9.45049
3.37554	9.44315
3.37335	9.44649
3.37115	9.40667
3.36896	9.45366
3.36678	9.39116
3.36459	9.31041
3.36241	9.35386
3.36023	9.36693
3.35805	9.34509
3.35588	9.44668
3.35371	9.43253
3.35154	9.40979
3.34938	9.35498
3.34721	9.40695
3.34505	9.44083
3.3429	9.41824
3.34074	9.43051
3.33859	9.45445
3.33644	9.49314
3.3343	9.43753
3.33215	9.32237
3.33001	9.22894
3.32788	9.25593
3.32574	9.32459
3.32361	9.37699
3.32148	9.37824
3.31936	9.35617
3.31723	9.37316
3.31511	9.36112
3.31299	9.35835
3.31088	9.45579
3.30876	9.45907
3.30665	9.36634
3.30455	9.30704
3.30244	9.30666
3.30034	9.36817
3.29824	9.38407
3.29614	9.3448
3.29405	9.35066
3.29196	9.36391
3.28987	9.40931
3.28778	9.40084
3.2857	9.35212
3.28362	9.29548
3.28154	9.27417
3.27946	9.26978
3.27739	9.36162
3.27532	9.38768
3.27325	9.27883
3.27119	9.26528
3.26913	9.25975
3.26707	9.26345
3.26501	9.28761
3.26295	9.37921
3.2609	9.4554
3.25885	9.34464
3.2568	9.20148
3.25476	9.19657
3.25272	9.24578
3.25068	9.28632
3.24864	9.32909
3.24661	9.41718
3.24458	9.37863
3.24255	9.27686
3.24052	9.28714
3.2385	9.32734
3.23648	9.29814
3.23446	9.24634
3.23244	9.18107
3.23043	9.17766
3.22841	9.21199
3.2264	9.14866
3.2244	9.13655
3.22239	9.14795
3.22039	9.09565
3.21839	9.14289
3.2164	9.2172
3.2144	9.22797
3.21241	9.25261
3.21042	9.2508
3.20844	9.20775
3.20645	9.24652
3.20447	9.23152
3.20249	9.33046
3.20051	9.36387
3.19854	9.16499
3.19657	9.01831
3.1946	9.10041
3.19263	9.23049
3.19067	9.30791
3.1887	9.32909
3.18674	9.22722
3.18479	9.11783
3.18283	9.12745
3.18088	9.20469
3.17893	9.14074
3.17698	9.17176
3.17504	9.26513
3.17309	9.28844
3.17115	9.26688
3.16921	9.19137
3.16728	9.08978
3.16534	9.07594
3.16341	9.18593
3.16148	9.2006
3.15956	9.23619
3.15763	9.28112
3.15571	9.30943
3.15379	9.20564
3.15187	9.13728
3.14996	9.14051
3.14805	9.09821
3.14614	9.21424
3.14423	9.33174
3.14232	9.32075
3.14042	9.30684
3.13852	9.16125
3.13662	9.1148
3.13472	9.15834
3.13283	9.22272
3.13094	9.13943
3.12905	9.10604
3.12716	9.15292
3.12528	9.13011
3.12339	9.05529
3.12151	9.05935
3.11964	9.10306
3.11776	9.09671
3.11589	9.11171
3.11401	9.2018
3.11214	9.20855
3.11028	9.15931
3.10841	9.13368
3.10655	9.08913
3.10469	9.08639
3.10283	9.06098
3.10098	9.12089
3.09912	9.11474
3.09727	9.0231
3.09542	9.00891
3.09358	9.12453
3.09173	9.09836
3.08989	9.0218
3.08805	9.02899
3.08621	9.06974
3.08437	9.19617
3.08254	9.24639
3.08071	9.14681
3.07888	9.1087
3.07705	9.0763
3.07523	9.0034
3.0734	9.00464
3.07158	9.12357
3.06977	9.12135
3.06795	9.07801
3.06613	9.07194
3.06432	9.05476
3.06251	9.03415
3.0607	9.00902
3.0589	9.05187
3.0571	9.01246
3.05529	8.96387
3.05349	8.9923
3.0517	9.01232
3.0499	9.0303
3.04811	9.07817
3.04632	8.99009
3.04453	9.07692
3.04274	9.20538
3.04096	9.12566
3.03918	9.09312
3.0374	9.14748
3.03562	9.07256
3.03384	8.96773
3.03207	8.97004
3.03029	8.95321
3.02852	8.96112
3.02676	8.97032
3.02499	9.05577
3.02323	9.16683
3.02146	9.12914
3.0197	9.03213
3.01795	9.04179
3.01619	9.0844
3.01444	9.10512
3.01269	9.12219
3.01094	9.09635
3.00919	9.03179
3.00744	9.02283
3.0057	9.05805
3.00396	8.99442
3.00222	8.96517
3.00048	9.01123
2.99875	9.08663
2.99701	9.05817
2.99528	8.99432
2.99355	9.14304
2.99183	9.2735
2.9901	9.1429
2.98838	9.01798
2.98666	9.02023
2.98494	9.02246
2.98322	9.02803
2.9815	9.12772
2.97979	9.2609
2.97808	9.35157
2.97637	9.19342
2.97466	8.98532
2.97295	9.08249
2.97125	9.03725
2.96955	8.86559
2.96785	8.96917
2.96615	8.99542
2.96446	8.91681
2.96276	8.99173
2.96107	9.17594
2.95938	9.26104
2.95769	9.14075
2.95601	9.06306
2.95432	9.12473
2.95264	9.00428
2.95096	8.94773
2.94928	8.96981
2.9476	8.9865
2.94593	9.03451
2.94425	9.08495
2.94258	8.98106
2.94092	8.8587
2.93925	8.98006
2.93758	9.15551
2.93592	9.08447
2.93426	8.93703
2.9326	8.97208
2.93094	8.94832
2.92928	8.97606
2.92763	9.09307
2.92598	9.09838
2.92433	8.98913
2.92268	8.81709
2.92103	8.73148
2.91939	8.89205
2.91775	8.93908
2.9161	8.96905
2.91447	8.9701
2.91283	8.88667
2.91119	8.80392
2.90956	8.80266
2.90793	8.8175
2.9063	8.94166
2.90467	9.05723
2.90304	9.05374
2.90142	8.9657
2.89979	8.8144
2.89817	8.89042
2.89656	9.03887
2.89494	9.21654
2.89332	9.19464
2.89171	9.09943
2.8901	9.03827
2.88849	8.94187
2.88688	8.92954
2.88527	8.99707
2.88367	8.97198
2.88206	8.87176
2.88046	8.88508
2.87886	8.90104
2.87727	8.89236
2.87567	9.01568
2.87408	8.97681
2.87248	8.88023
2.87089	8.93139
2.8693	9.00836
2.86772	9.01936
2.86613	9.01525
2.86455	8.90295
2.86297	8.83127
2.86139	8.86795
2.85981	8.88453
2.85823	8.7693
2.85666	8.80069
2.85508	8.86259
2.85351	8.83653
2.85194	8.7472
2.85038	8.82522
2.84881	8.85477
2.84724	8.8367
2.84568	8.8788
2.84412	8.82128
2.84256	8.92108
2.841	8.90414
2.83945	8.72615
2.83789	8.65913
2.83634	8.81578
2.83479	8.85814
2.83324	8.92569
2.83169	8.87951
2.83015	8.83533
2.82861	8.93714
2.82706	8.94206
2.82552	8.86464
2.82398	8.80899
2.82245	8.72193
2.82091	8.62988
2.81938	8.64609
2.81784	8.73854
2.81631	8.79506
2.81479	8.73507
2.81326	8.6653
2.81173	8.82354
2.81021	8.83176
2.80869	8.83952
2.80716	8.8394
2.80565	8.81684
2.80413	8.7602
2.80261	8.63295
2.8011	8.65182
2.79959	8.7913
2.79808	8.81241
2.79657	8.71666
2.79506	8.61407
2.79355	8.57369
2.79205	8.54171
2.79055	8.69968
2.78904	8.84459
2.78754	8.84161
2.78605	8.59282
2.78455	8.46848
2.78306	8.56447
2.78156	8.7491
2.78007	8.74658
2.77858	8.72754
2.77709	8.57261
2.77561	8.39188
2.77412	8.44239
2.77264	8.47348
2.77116	8.6223
2.76968	8.65816
2.7682	8.62007
2.76672	8.61927
2.76524	8.70126
2.76377	8.74453
2.7623	8.64818
2.76083	8.57864
2.75936	8.50826
2.75789	8.47743
2.75642	8.45182
2.75496	8.57019
2.7535	8.60357
2.75203	8.64844
2.75057	8.61173
2.74912	8.4966
2.74766	8.46467
2.7462	8.43058
2.74475	8.49444
2.7433	8.51093
2.74185	8.54766
2.7404	8.6016
2.73895	8.51235
2.7375	8.47363
2.73606	8.59184
2.73462	8.65726
2.73318	8.55558
2.73174	8.49938
2.7303	8.44479
2.72886	8.41502
2.72742	8.52071
2.72599	8.65447
2.72456	8.67534
2.72313	8.59258
2.7217	8.55665
2.72027	8.58187
2.71884	8.51742
2.71742	8.53155
2.71599	8.56817
2.71457	8.54456
2.71315	8.57265
2.71173	8.69323
2.71032	8.64455
2.7089	8.5258
2.70748	8.48047
2.70607	8.43689
2.70466	8.45296
2.70325	8.5097
2.70184	8.6219
2.70043	8.7516
2.69903	8.676
2.69762	8.66222
2.69622	8.62577
2.69482	8.54409
2.69342	8.59224
2.69202	8.48067
2.69062	8.47874
2.68923	8.55305
2.68783	8.67037
2.68644	8.67539
2.68505	8.69411
2.68366	8.71685
2.68227	8.6193
2.68089	8.57126
2.6795	8.63533
2.67812	8.6952
2.67673	8.76004
2.67535	8.61264
2.67397	8.45462
2.6726	8.58447
2.67122	8.58508
2.66984	8.5168
2.66847	8.54458
2.6671	8.67126
2.66572	8.71908
2.66435	8.65108
2.66299	8.49558
2.66162	8.43946
2.66025	8.40536
2.65889	8.46263
2.65753	8.46165
2.65616	8.40766
2.65481	8.32582
2.65345	8.45072
2.65209	8.58526
2.65073	8.65566
2.64938	8.60603
2.64803	8.36719
2.64667	8.35393
2.64532	8.64756
2.64397	8.60902
2.64263	8.44775
2.64128	8.49158
2.63994	8.59303
2.63859	8.62202
2.63725	8.52734
2.63591	8.43154
2.63457	8.36748
2.63323	8.38223
2.6319	8.53342
2.63056	8.70339
2.62923	8.63891
2.62789	8.59917
2.62656	8.63986
2.62523	8.64385
2.6239	8.54069
2.62258	8.42595
2.62125	8.54934
2.61993	8.50382
2.6186	8.42578
2.61728	8.61212
2.61596	8.61102
2.61464	8.53982
2.61332	8.53203
2.61201	8.38958
2.61069	8.38453
2.60938	8.54737
2.60807	8.45579
2.60675	8.29089
2.60544	8.40935
2.60414	8.50193
2.60283	8.48636
2.60152	8.50798
2.60022	8.50083
2.59891	8.41786
2.59761	8.43307
2.59631	8.58647
2.59501	8.58824
2.59371	8.5274
2.59242	8.49477
2.59112	8.37626
2.58983	8.30425
2.58853	8.48946
2.58724	8.67063
2.58595	8.5627
2.58466	8.48239
2.58338	8.53525
2.58209	8.49687
2.5808	8.40213
2.57952	8.36804
2.57824	8.37739
2.57695	8.34061
2.57567	8.34527
2.5744	8.50727
2.57312	8.64364
2.57184	8.53396
2.57057	8.42117
2.56929	8.3478
2.56802	8.26906
2.56675	8.26117
2.56548	8.32833
2.56421	8.50469
2.56294	8.52558
2.56168	8.49356
2.56041	8.40158
2.55915	8.33595
2.55789	8.21085
2.55662	8.12596
2.55536	8.1393
2.5541	8.3214
2.55285	8.45699
2.55159	8.37602
2.55034	8.38722
2.54908	8.41392
2.54783	8.36646
2.54658	8.31016
2.54533	8.39002
2.54408	8.44445
2.54283	8.34488
2.54159	8.3302
2.54034	8.31437
2.5391	8.2994
2.53785	8.1989
2.53661	8.23992
2.53537	8.31144
2.53413	8.28114
2.53289	8.28859
2.53166	8.33511
2.53042	8.33314
2.52919	8.33373
2.52795	8.32639
2.52672	8.20585
2.52549	8.06445
2.52426	8.18189
2.52303	8.3731
2.52181	8.35643
2.52058	8.32865
2.51936	8.37988
2.51813	8.28798
2.51691	8.24884
2.51569	8.25603
2.51447	8.27257
2.51325	8.30743
2.51203	8.32114
2.51082	8.21873
2.5096	8.34249
2.50839	8.51464
2.50717	8.48063
2.50596	8.35744
2.50475	8.21868
2.50354	8.12066
2.50233	8.28578
2.50113	8.37301
2.49992	8.31576
2.49872	8.29128
2.49751	8.29557
2.49631	8.24951
2.49511	8.26926
2.49391	8.28449
2.49271	8.36208
2.49151	8.3044
2.49031	8.09646
2.48912	8.11121
2.48792	8.27229
2.48673	8.29099
2.48554	8.18528
2.48435	8.08031
2.48316	8.1077
2.48197	8.12165
2.48078	8.1601
2.4796	8.30738
2.47841	8.34304
2.47723	8.23143
2.47604	8.20114
2.47486	8.23784
2.47368	8.15233
2.4725	8.04064
2.47132	8.14076
2.47014	8.28825
2.46897	8.24711
2.46779	8.17058
2.46662	8.20296
2.46545	8.10585
2.46427	8.10559
2.4631	8.23496
2.46193	8.14986
2.46077	8.14769
2.4596	8.2086
2.45843	8.13544
2.45727	8.06571
2.4561	8.16711
2.45494	8.29415
2.45378	8.21849
2.45262	8.16869
2.45146	8.21192
2.4503	8.29816
2.44914	8.3458
2.44799	8.16959
2.44683	7.88863
2.44568	7.78071
2.44452	8.07327
2.44337	8.08071
2.44222	7.9673
2.44107	8.08721
2.43992	8.09334
2.43877	8.11986
2.43763	8.07464
2.43648	8.08747
2.43534	8.19817
2.43419	8.28889
2.43305	8.25939
2.43191	8.16752
2.43077	8.22713
2.42963	8.04976
2.42849	7.86772
2.42736	8.05003
2.42622	8.14425
2.42509	8.11997
2.42395	8.09753
2.42282	8.08848
2.42169	8.01987
2.42056	8.02598
2.41943	7.94913
2.4183	7.94314
2.41717	8.14856
2.41605	8.20703
2.41492	8.23155
2.4138	8.17162
2.41267	8.15398
2.41155	8.08298
2.41043	8.02153
2.40931	7.97083
2.40819	8.15701
2.40707	8.27399
2.40595	8.19804
2.40484	8.16158
2.40372	8.05842
2.40261	7.95977
2.4015	8.01111
2.40039	8.02798
2.39928	8.0906
2.39817	8.02826
2.39706	7.97507
2.39595	8.16543
2.39484	8.29014
2.39374	8.12398
2.39263	8.01462
2.39153	8.10082
2.39043	8.12543
2.38932	7.94827
2.38822	7.96523
2.38712	8.10545
2.38603	8.02871
2.38493	7.94478
2.38383	8.03351
2.38274	8.02549
2.38164	7.89439
2.38055	8.03068
2.37946	8.06581
2.37836	7.94358
2.37727	7.85026
2.37618	7.95042
2.3751	8.05018
2.37401	8.05503
2.37292	7.99129
2.37184	8.10397
2.37075	8.11456
2.36967	8.09453
2.36859	8.12913
2.3675	8.1197
2.36642	8.1547
2.36534	8.07996
2.36427	8.00286
2.36319	8.03616
2.36211	7.95431
2.36104	7.95435
2.35996	7.96604
2.35889	7.96649
2.35781	7.92288
2.35674	7.87007
2.35567	7.99826
2.3546	8.05002
2.35353	8.01653
2.35247	7.99942
2.3514	7.96739
2.35033	7.89839
2.34927	7.92793
2.3482	7.91733
2.34714	7.96704
2.34608	7.98644
2.34502	7.96036
2.34396	8.0201
2.3429	8.02138
2.34184	7.91759
2.34078	7.97189
2.33973	8.01603
2.33867	8.05136
2.33762	7.99843
2.33656	7.86323
2.33551	7.89655
2.33446	8.15136
2.33341	8.12422
2.33236	7.87255
2.33131	7.91663
2.33026	8.04786
2.32922	7.9764
2.32817	7.98456
2.32712	8.12161
2.32608	7.97189
2.32504	7.7844
2.324	7.86834
2.32295	7.92362
2.32191	7.87454
2.32087	7.99533
2.31984	8.1412
2.3188	8.06869
2.31776	7.82341
2.31673	7.67643
2.31569	7.70526
2.31466	7.83485
2.31362	7.98038
2.31259	8.01433
2.31156	7.95418
2.31053	7.95326
2.3095	7.89665
2.30847	7.83621
2.30745	7.87623
2.30642	7.97731
2.3054	8.04424
2.30437	7.93533
2.30335	7.75343
2.30232	7.85849
2.3013	8.03559
2.30028	7.97594
2.29926	7.97609
2.29824	7.96521
2.29722	7.97198
2.29621	7.9449
2.29519	7.90169
2.29417	7.95768
2.29316	7.96728
2.29215	7.81917
2.29113	7.7265
2.29012	7.9298
2.28911	7.94779
2.2881	7.74269
2.28709	7.80409
2.28608	7.89823
2.28507	7.85796
2.28407	7.78338
2.28306	7.81635
2.28206	7.87287
2.28105	7.82069
2.28005	7.7465
2.27905	7.73705
2.27805	7.77641
2.27705	7.8313
2.27605	7.94257
2.27505	7.93369
2.27405	7.7972
2.27305	7.7017
2.27206	7.80082
2.27106	7.86435
2.27007	7.918
2.26907	7.9045
2.26808	7.8445
2.26709	7.89479
2.2661	7.75967
2.26511	7.65607
2.26412	7.83706
2.26313	7.75849
2.26214	7.75748
2.26116	7.85545
2.26017	7.88799
2.25919	7.86877
2.2582	7.8478
2.25722	7.91501
2.25624	7.90499
2.25526	7.88228
2.25428	7.95325
2.2533	7.87423
2.25232	7.78746
2.25134	7.83891
2.25036	7.94148
2.24939	7.82413
2.24841	7.82131
2.24744	7.97211
2.24646	7.99825
2.24549	8.07606
2.24452	7.88111
2.24355	7.73679
2.24257	7.84425
2.24161	7.83813
2.24064	7.77789
2.23967	7.9711
2.2387	8.06086
2.23774	7.84755
2.23677	7.77554
2.23581	7.78849
2.23484	7.87283
2.23388	8.04681
2.23292	7.91144
2.23196	7.74674
2.231	7.79208
2.23004	7.82202
2.22908	7.78166
2.22812	7.63324
2.22716	7.62419
2.22621	7.78634
2.22525	7.7734
2.2243	7.79994
2.22334	7.7912
2.22239	7.66544
2.22144	7.56944
2.22049	7.65093
2.21953	7.80244
2.21859	7.76996
2.21764	7.7226
2.21669	7.93761
2.21574	7.98253
2.21479	7.89437
2.21385	7.8295
2.2129	7.70871
2.21196	7.63012
2.21102	7.64144
2.21007	7.75849
2.20913	7.76527
2.20819	7.8214
2.20725	7.85568
2.20631	7.80798
2.20537	7.69997
2.20444	7.58394
2.2035	7.45099
2.20256	7.62474
2.20163	7.96176
2.20069	8.04203
2.19976	7.80149
2.19883	7.5184
2.19789	7.60458
2.19696	7.84015
2.19603	7.8573
2.1951	7.7177
2.19417	7.62014
2.19325	7.55386
2.19232	7.4761
2.19139	7.57036
2.19047	7.80221
2.18954	7.78624
2.18862	7.68891
2.18769	7.59368
2.18677	7.57427
2.18585	7.77409
2.18493	7.82226
2.18401	7.5903
2.18309	7.49101
2.18217	7.56437
2.18125	7.72861
2.18033	7.84819
2.17942	7.82395
2.1785	7.68813
2.17759	7.62846
2.17667	7.53808
2.17576	7.60919
2.17485	7.83491
2.17393	8.0199
2.17302	7.96802
2.17211	7.89619
2.1712	7.95094
2.17029	7.94593
2.16939	7.7854
2.16848	7.61544
2.16757	7.50497
2.16667	7.71727
2.16576	7.73372
2.16486	7.66022
2.16395	7.85096
2.16305	7.98543
2.16215	7.96869
2.16125	7.84644
2.16035	7.73422
2.15945	7.88442
2.15855	7.77612
2.15765	7.56642
2.15675	7.76097
2.15586	7.77525
2.15496	7.43966
2.15406	7.30861
2.15317	7.51768
2.15228	7.65395
2.15138	7.52228
2.15049	7.45426
2.1496	7.40763
2.14871	7.49389
2.14782	7.64215
2.14693	7.69385
2.14604	7.81618
2.14515	7.81326
2.14427	7.84152
2.14338	7.74988
2.14249	7.62445
2.14161	7.54831
2.14072	7.42209
2.13984	7.27456
2.13896	7.41578
2.13808	7.63782
2.13719	7.62739
2.13631	7.58372
2.13543	7.71137
2.13455	7.81466
2.13368	7.71897
2.1328	7.66422
2.13192	7.75483
2.13105	7.69759
2.13017	7.65389
2.1293	7.54815
2.12842	7.55077
2.12755	7.61106
2.12668	7.53927
2.1258	7.45102
2.12493	7.43717
2.12406	7.48962
2.12319	7.65433
2.12232	7.715
2.12145	7.63274
2.12059	7.68986
2.11972	7.70584
2.11885	7.62884
2.11799	7.69041
2.11712	7.47458
2.11626	7.33003
2.1154	7.614
2.11453	7.87156
2.11367	7.95792
2.11281	7.62631
2.11195	7.44988
2.11109	7.57034
2.11023	7.45421
2.10937	7.26125
2.10851	7.11576
2.10766	7.09477
2.1068	7.36546
2.10594	7.53307
2.10509	7.75545
2.10423	7.9111
2.10338	7.88857
2.10253	7.86931
2.10168	7.67066
2.10082	7.47971
2.09997	7.55382
2.09912	7.65947
2.09827	7.35733
2.09742	7.28675
2.09658	7.44007
2.09573	7.69846
2.09488	7.60045
2.09404	7.57592
2.09319	7.49617
2.09235	7.39594
2.0915	7.36358
2.09066	7.32634
2.08982	7.45231
2.08897	7.5577
2.08813	7.30566
2.08729	7.28645
2.08645	7.43257
2.08561	7.64151
2.08477	7.74571
2.08394	7.59269
2.0831	7.561
2.08226	7.50316
2.08143	7.39172
2.08059	7.25288
2.07976	7.14793
2.07892	7.09723
2.07809	7.43509
2.07726	7.89657
2.07643	7.70072
2.07559	7.62773
2.07476	7.58239
2.07393	7.29155
2.0731	7.37918
2.07228	7.47049
2.07145	7.41063
2.07062	7.29166
2.06979	6.99389
2.06897	6.94075
2.06814	7.21375
2.06732	7.70585
2.06649	7.82785
2.06567	7.9019
2.06485	7.70372
2.06403	7.52218
2.0632	7.46727
2.06238	7.2538
2.06156	7.41543
2.06074	7.63523
2.05993	7.58913
2.05911	7.742
2.05829	7.77486
2.05747	7.63553
2.05666	7.53523
2.05584	7.66116
2.05503	7.48102
2.05421	7.23002
2.0534	7.39697
2.05259	7.60444
2.05177	7.59869
2.05096	7.49958
2.05015	7.43591
2.04934	7.48548
2.04853	7.37026
2.04772	7.30478
2.04691	7.36515
2.04611	7.32939
2.0453	7.4009
2.04449	7.43146
2.04369	7.52306
2.04288	7.60704
2.04208	7.36994
2.04127	7.23445
2.04047	7.23473
2.03967	7.42229
2.03886	7.55643
2.03806	7.45876
2.03726	7.43062
2.03646	7.62
2.03566	7.57906
2.03486	7.33036
2.03407	7.22179
2.03327	7.38328
2.03247	7.77027
2.03167	7.81719
2.03088	7.58139
2.03008	7.5214
2.02929	7.60821
2.0285	7.61087
2.0277	7.78253
2.02691	7.7436
2.02612	7.34935
2.02533	7.28071
2.02453	7.31038
2.02374	7.34503
2.02295	7.4599
2.02217	7.50602
2.02138	7.50236
2.02059	7.4719
2.0198	7.34935
2.01902	7.29462
2.01823	7.34183
2.01744	7.31147
2.01666	7.39298
2.01588	7.47524
2.01509	7.33339
2.01431	7.62446
2.01353	7.64704
2.01275	7.27166
2.01196	7.50416
2.01118	7.55758
2.0104	7.39552
2.00963	7.49222
2.00885	7.50183
2.00807	7.35816
2.00729	7.36505
2.00651	7.55237
2.00574	7.58249
2.00496	7.45895
2.00419	7.48133
2.00341	7.33978
2.00264	7.29799
2.00187	7.24256
2.00109	7.20368
2.00032	7.28232
