Name: Colemanite Ca_2B_6O_11.5H_2O
Type: Mineral
Class: Borates
Subclass: 
Particle Size: 125-500um
Sample No.: B-1A
Owner: JPL
Wavelength range: IR
Origin: USA, California, Kern County, Boron
Collected by Burminco
Description: 





Measurement: Hemispherical reflectance
First Column: X
Second Column: Y
X Units:  Wavelength (micrometers)
Y Units:  Reflectance (percent)
First X Value: 15.3853
Last X Value: 2.00032
Number of X Values: 2256
Additional information: b01aa.txt
 
15.3853	4.64604
15.3397	4.69587
15.2945	4.74042
15.2495	4.8412
15.2048	4.84141
15.1603	4.74942
15.1161	4.85791
15.0722	5.03085
15.0285	4.99496
14.9851	5.06121
14.9419	5.08429
14.8989	5.18886
14.8563	5.30049
14.8138	5.04018
14.7716	4.9101
14.7296	4.87051
14.6879	4.9942
14.6464	5.22773
14.6052	5.33685
14.5641	5.45842
14.5233	5.52863
14.4828	5.51125
14.4424	5.67501
14.4023	5.46749
14.3624	5.50659
14.3227	5.65784
14.2833	5.59095
14.244	5.52463
14.205	5.51432
14.1662	5.60774
14.1276	5.64773
14.0892	5.6206
14.051	5.77119
14.0131	6.08507
13.9753	6.17603
13.9377	6.29422
13.9004	6.20932
13.8632	6.19589
13.8262	6.4059
13.7895	6.74081
13.7529	7.04898
13.7165	7.14351
13.6803	7.24638
13.6443	7.12138
13.6085	6.6806
13.5729	6.17125
13.5374	5.71944
13.5022	5.75889
13.4671	5.96109
13.4322	6.11902
13.3975	6.31097
13.363	6.58831
13.3286	6.8934
13.2944	7.28925
13.2604	7.87163
13.2266	8.42019
13.193	8.89553
13.1595	9.27253
13.1262	9.38501
13.093	9.1769
13.06	8.28941
13.0272	6.83429
12.9946	5.36961
12.9621	4.46855
12.9298	4.24821
12.8976	4.40141
12.8656	4.6577
12.8337	4.89844
12.8021	4.98363
12.7705	5.28847
12.7391	5.58128
12.7079	5.74406
12.6769	5.85324
12.6459	6.0582
12.6152	6.09207
12.5845	5.89265
12.5541	5.79752
12.5238	6.06044
12.4936	6.31319
12.4635	6.42088
12.4337	6.62797
12.4039	6.93135
12.3743	7.08865
12.3448	7.0869
12.3155	7.12041
12.2863	7.02179
12.2573	6.96323
12.2284	6.91398
12.1996	6.73503
12.171	6.65818
12.1425	6.75211
12.1141	6.81178
12.0859	6.88907
12.0578	7.07244
12.0298	7.26687
12.0019	7.49538
11.9742	7.75024
11.9466	8.02156
11.9192	8.22973
11.8918	8.53653
11.8646	8.79741
11.8375	9.08896
11.8106	9.49752
11.7837	9.92166
11.757	10.2765
11.7304	10.5247
11.7039	10.7679
11.6776	11.0534
11.6513	11.2037
11.6252	11.3881
11.5992	11.5452
11.5733	11.6962
11.5475	11.7487
11.5219	11.6423
11.4963	11.6551
11.4709	11.7619
11.4455	11.9251
11.4203	12.0495
11.3952	12.249
11.3702	12.4122
11.3454	12.5946
11.3206	12.9289
11.2959	13.3293
11.2714	13.7501
11.2469	14.2484
11.2226	14.5827
11.1983	14.9028
11.1742	15.2903
11.1502	15.6008
11.1263	15.8712
11.1024	16.2117
11.0787	16.5842
11.0551	17.0286
11.0316	17.5114
11.0081	17.948
10.9848	18.3769
10.9616	18.8242
10.9385	19.2979
10.9154	19.6626
10.8925	19.8232
10.8697	19.8332
10.8469	19.6175
10.8243	19.2456
10.8017	18.7069
10.7793	18.0822
10.7569	17.4926
10.7346	17.0995
10.7125	16.949
10.6904	17.1935
10.6684	17.5915
10.6465	18.059
10.6247	18.4662
10.6029	18.8374
10.5813	19.2822
10.5597	19.6462
10.5383	19.8283
10.5169	20.0643
10.4956	20.2038
10.4744	20.2758
10.4533	20.3206
10.4323	20.1948
10.4113	19.6559
10.3904	18.9818
10.3697	18.3228
10.349	17.5557
10.3284	16.5518
10.3078	15.5199
10.2874	14.4047
10.267	13.2454
10.2467	12.3653
10.2265	11.7753
10.2064	11.1906
10.1863	10.6295
10.1663	10.2146
10.1464	9.87977
10.1266	9.50723
10.1069	9.20119
10.0872	8.86272
10.0676	8.32481
10.0481	7.85298
10.0287	7.46749
10.0093	7.07346
9.99005	6.64836
9.97084	6.15308
9.95169	5.70421
9.93263	5.31048
9.91364	5.01763
9.89472	4.84894
9.87587	4.78442
9.8571	4.74195
9.83839	4.64564
9.81976	4.55295
9.80119	4.6196
9.78271	4.75705
9.76428	4.9093
9.74592	5.01511
9.72764	5.184
9.70943	5.33045
9.69128	5.45965
9.6732	5.56441
9.65518	5.62024
9.63724	5.89513
9.61935	6.24681
9.60155	6.54705
9.5838	6.94342
9.56611	7.35479
9.5485	7.64902
9.53094	7.72053
9.51345	7.59569
9.49604	7.48807
9.47867	7.1609
9.46137	6.56477
9.44414	5.93206
9.42697	5.3882
9.40986	4.96658
9.39281	4.49518
9.37583	4.12099
9.35891	3.83756
9.34204	3.51899
9.32524	3.32351
9.3085	3.28914
9.29182	3.15256
9.27519	2.84434
9.25863	2.67
9.24213	2.42526
9.22568	2.26358
9.2093	2.05372
9.19297	1.99044
9.17669	1.91
9.16048	1.73557
9.14433	1.71108
9.12823	1.79979
9.11218	1.94684
9.0962	2.0891
9.08027	2.13122
9.06439	2.0514
9.04858	1.94299
9.03281	2.02768
9.0171	2.32838
9.00145	2.55435
8.98585	2.60093
8.9703	2.60663
8.9548	2.67995
8.93937	2.84341
8.92398	2.77224
8.90865	2.80873
8.89337	2.94944
8.87814	2.94704
8.86296	2.73268
8.84784	2.6627
8.83277	2.78924
8.81774	2.90267
8.80277	2.83586
8.78786	2.64481
8.77298	2.52032
8.75816	2.51485
8.7434	2.66208
8.72868	2.72378
8.714	2.67299
8.69938	2.65161
8.68481	2.54562
8.67029	2.49697
8.65581	2.52789
8.64139	2.66001
8.62701	2.64427
8.61268	2.53179
8.5984	2.5989
8.58416	2.55296
8.56997	2.37487
8.55583	2.19284
8.54174	1.98608
8.52769	1.8688
8.51368	1.81415
8.49973	1.69867
8.48582	1.41002
8.47195	1.26901
8.45813	1.34022
8.44436	1.33623
8.43062	1.28119
8.41693	1.28856
8.4033	1.25889
8.3897	1.25626
8.37614	1.29135
8.36264	1.40149
8.34917	1.39106
8.33574	1.47234
8.32236	1.63112
8.30903	1.75807
8.29573	1.92556
8.28248	2.09295
8.26927	2.23594
8.2561	2.2553
8.24298	2.34564
8.2299	2.51415
8.21685	2.67962
8.20385	2.87088
8.19089	3.09525
8.17797	3.16989
8.16509	3.17857
8.15225	3.26052
8.13946	3.26479
8.1267	3.21598
8.11398	3.19566
8.10131	3.06868
8.08867	2.82476
8.07606	2.78252
8.0635	2.62517
8.05099	2.36583
8.0385	2.36442
8.02606	2.5193
8.01366	2.64154
8.00129	2.81005
7.98896	2.95196
7.97667	2.99782
7.96442	3.13032
7.9522	3.43472
7.94002	3.73562
7.92788	3.94181
7.91578	4.12406
7.90371	4.20888
7.89168	4.28946
7.87969	4.39588
7.86773	4.5012
7.85581	4.52011
7.84392	4.5622
7.83207	4.57629
7.82026	4.4836
7.80849	4.42093
7.79674	4.38327
7.78503	4.24788
7.77337	4.212
7.76173	4.22294
7.75012	4.22487
7.73856	4.24338
7.72703	4.23634
7.71553	4.22056
7.70406	4.2412
7.69263	4.37263
7.68123	4.66785
7.66987	4.97138
7.65855	5.4291
7.64725	5.91916
7.63598	6.37134
7.62475	6.99784
7.61356	7.62705
7.60239	8.15334
7.59126	8.65861
7.58017	9.17218
7.5691	9.57085
7.55806	9.85633
7.54707	10.0747
7.5361	10.2226
7.52516	10.3466
7.51425	10.4349
7.50338	10.5335
7.49253	10.6511
7.48172	10.5687
7.47094	10.4624
7.46019	10.395
7.44947	10.1867
7.43879	9.84305
7.42813	9.35549
7.4175	8.81765
7.4069	8.45361
7.39634	8.4659
7.3858	8.81355
7.37529	9.37416
7.36482	10.0942
7.35437	10.8343
7.34396	11.5618
7.33357	12.2779
7.32321	12.8498
7.31288	13.303
7.30258	13.6615
7.29231	14.0292
7.28207	14.3067
7.27185	14.4106
7.26167	14.3256
7.25152	14.138
7.24139	13.7921
7.23129	13.3117
7.22122	12.7937
7.21117	12.3557
7.20116	11.833
7.19117	11.2299
7.18121	10.7146
7.17128	10.2398
7.16137	9.57262
7.1515	8.99316
7.14164	8.45698
7.13182	7.93182
7.12203	7.48941
7.11225	7.11836
7.10251	6.60345
7.0928	6.06828
7.08311	5.51156
7.07344	4.97614
7.06381	4.54648
7.0542	3.99686
7.04461	3.41455
7.03506	2.89464
7.02552	2.45281
7.01601	2.07829
7.00653	1.80973
6.99708	1.61058
6.98765	1.37481
6.97824	1.20867
6.96886	1.00459
6.95951	0.832082
6.95018	0.727003
6.94087	0.629279
6.9316	0.626055
6.92234	0.599925
6.91311	0.511315
6.90391	0.55166
6.89473	0.470066
6.88557	0.39862
6.87644	0.467436
6.86733	0.502996
6.85824	0.487808
6.84918	0.506541
6.84015	0.486676
6.83114	0.40048
6.82215	0.440482
6.81319	0.452116
6.80424	0.407148
6.79532	0.309601
6.78643	0.206676
6.77756	0.213455
6.76871	0.267391
6.75989	0.227897
6.75109	0.223673
6.74231	0.250608
6.73355	0.194059
6.72482	0.214291
6.71611	0.262034
6.70742	0.231953
6.69875	0.162283
6.69011	0.152367
6.68149	0.279079
6.67289	0.365011
6.66431	0.26205
6.65576	0.33131
6.64722	0.41733
6.63871	0.366319
6.63022	0.259706
6.62175	0.243462
6.61331	0.33704
6.60488	0.39345
6.59648	0.305735
6.5881	0.36568
6.57974	0.487006
6.5714	0.574364
6.56308	0.560914
6.55478	0.531209
6.54651	0.576175
6.53825	0.570144
6.53001	0.52471
6.5218	0.55494
6.51361	0.475406
6.50544	0.412419
6.49729	0.538412
6.48915	0.627778
6.48104	0.627255
6.47295	0.671562
6.46488	0.681932
6.45683	0.654739
6.4488	0.636035
6.44079	0.532147
6.4328	0.495419
6.42482	0.54886
6.41687	0.66637
6.40894	0.675187
6.40103	0.715149
6.39314	0.756237
6.38526	0.659059
6.37741	0.64587
6.36957	0.731115
6.36176	0.730606
6.35396	0.688764
6.34618	0.671445
6.33843	0.746297
6.33069	0.79253
6.32297	0.751816
6.31527	0.683046
6.30758	0.738967
6.29992	0.777795
6.29227	0.758668
6.28465	0.760681
6.27704	0.767245
6.26945	0.744636
6.26188	0.790981
6.25432	0.816755
6.24679	0.831595
6.23927	0.922124
6.23177	0.915287
6.22429	0.875976
6.21683	0.857309
6.20938	0.799256
6.20195	0.79753
6.19454	0.766673
6.18715	0.749389
6.17978	0.820094
6.17242	0.812425
6.16508	0.865672
6.15776	0.920295
6.15045	0.810212
6.14317	0.820495
6.1359	0.875941
6.12864	0.907237
6.12141	0.92932
6.11419	0.940014
6.10699	0.936363
6.0998	0.981695
6.09263	0.986296
6.08549	0.887713
6.07835	0.960518
6.07123	0.977134
6.06413	0.91171
6.05705	0.982245
6.04998	1.12424
6.04293	1.02112
6.0359	0.887375
6.02888	0.912958
6.02187	0.916048
6.01489	0.889887
6.00792	0.868145
6.00096	0.884182
5.99403	0.947831
5.98711	1.07115
5.9802	1.08815
5.97331	1.01321
5.96644	0.983886
5.95958	0.995231
5.95274	1.02788
5.94591	1.04235
5.9391	1.01972
5.9323	0.989288
5.92552	0.945101
5.91876	0.982171
5.91201	0.999522
5.90528	0.989692
5.89856	1.06114
5.89186	1.05638
5.88517	1.07109
5.8785	1.05766
5.87184	1.08606
5.8652	1.12878
5.85857	1.03471
5.85196	0.972988
5.84536	1.01608
5.83878	1.00152
5.83221	0.943969
5.82566	0.910222
5.81912	0.905654
5.81259	0.912545
5.80608	1.0727
5.79959	1.12539
5.79311	1.03998
5.78665	0.941072
5.78019	0.976411
5.77376	1.03717
5.76734	1.05676
5.76093	1.03325
5.75453	1.03826
5.74815	1.03037
5.74179	1.07063
5.73543	1.12314
5.7291	1.1026
5.72277	1.09019
5.71646	1.10255
5.71017	1.08883
5.70389	1.10466
5.69762	1.12383
5.69136	1.10155
5.68513	1.07519
5.6789	1.04207
5.67268	1.05066
5.66648	1.03946
5.6603	1.09518
5.65413	1.19645
5.64797	1.19351
5.64182	1.19739
5.63569	1.17594
5.62957	1.12872
5.62347	1.1904
5.61737	1.19074
5.61129	1.194
5.60522	1.26358
5.59917	1.26706
5.59313	1.2557
5.5871	1.24006
5.58109	1.2268
5.57509	1.26068
5.5691	1.20193
5.56312	1.15641
5.55716	1.17995
5.55121	1.23861
5.54528	1.2124
5.53935	1.2428
5.53344	1.26602
5.52754	1.2587
5.52166	1.30845
5.51578	1.39522
5.50992	1.39572
5.50407	1.37592
5.49823	1.27716
5.49241	1.24592
5.4866	1.27277
5.4808	1.28177
5.47501	1.33017
5.46923	1.31546
5.46347	1.28759
5.45772	1.29989
5.45198	1.35716
5.44625	1.39983
5.44054	1.37447
5.43484	1.34035
5.42914	1.36927
5.42347	1.39661
5.4178	1.34756
5.41214	1.34344
5.4065	1.32581
5.40087	1.35032
5.39525	1.3282
5.38964	1.25439
5.38404	1.29121
5.37846	1.38517
5.37288	1.38824
5.36732	1.32449
5.36177	1.31766
5.35623	1.3796
5.35071	1.37051
5.34519	1.38117
5.33968	1.42068
5.33419	1.39555
5.32871	1.37631
5.32324	1.38111
5.31778	1.40629
5.31233	1.46982
5.30689	1.50692
5.30147	1.47338
5.29605	1.43436
5.29065	1.41962
5.28525	1.41484
5.27987	1.44314
5.2745	1.44799
5.26914	1.47504
5.26379	1.5054
5.25845	1.48153
5.25312	1.48365
5.24781	1.53964
5.2425	1.55525
5.23721	1.52702
5.23192	1.47621
5.22665	1.46431
5.22138	1.50119
5.21613	1.53652
5.21089	1.49868
5.20566	1.45003
5.20044	1.41297
5.19522	1.4499
5.19002	1.55258
5.18483	1.5771
5.17965	1.54523
5.17448	1.56062
5.16933	1.55097
5.16418	1.4948
5.15904	1.45017
5.15391	1.47978
5.14879	1.48113
5.14368	1.46548
5.13859	1.50407
5.1335	1.54661
5.12842	1.54671
5.12335	1.63949
5.1183	1.62311
5.11325	1.51248
5.10821	1.51073
5.10318	1.46145
5.09817	1.48174
5.09316	1.54781
5.08816	1.54763
5.08317	1.59308
5.07819	1.56692
5.07322	1.50424
5.06826	1.51472
5.06331	1.50941
5.05837	1.49114
5.05344	1.52406
5.04852	1.63631
5.04361	1.704
5.03871	1.73089
5.03382	1.73161
5.02894	1.69656
5.02406	1.59385
5.0192	1.5134
5.01435	1.56478
5.0095	1.64212
5.00467	1.55638
4.99984	1.51483
4.99502	1.58955
4.99021	1.60844
4.98542	1.58428
4.98063	1.59844
4.97585	1.64825
4.97108	1.71706
4.96632	1.6977
4.96156	1.61432
4.95682	1.51439
4.95209	1.60715
4.94736	1.65656
4.94264	1.61113
4.93794	1.63625
4.93324	1.66373
4.92855	1.6878
4.92387	1.6985
4.9192	1.61957
4.91453	1.5248
4.90988	1.55189
4.90524	1.61227
4.9006	1.70438
4.89597	1.72948
4.89135	1.73154
4.88674	1.73516
4.88214	1.67144
4.87755	1.62336
4.87296	1.6368
4.86839	1.64909
4.86382	1.60447
4.85926	1.65634
4.85471	1.76483
4.85017	1.8068
4.84564	1.79793
4.84111	1.76146
4.8366	1.70196
4.83209	1.69105
4.82759	1.72468
4.8231	1.72835
4.81862	1.71556
4.81415	1.79708
4.80968	1.84237
4.80522	1.75826
4.80077	1.68562
4.79633	1.74026
4.7919	1.79034
4.78747	1.73934
4.78306	1.67709
4.77865	1.67656
4.77425	1.73761
4.76986	1.81354
4.76547	1.83209
4.7611	1.8044
4.75673	1.85582
4.75237	1.84772
4.74802	1.74529
4.74367	1.74004
4.73934	1.78263
4.73501	1.79427
4.73069	1.8034
4.72638	1.733
4.72207	1.73099
4.71777	1.81305
4.71348	1.87664
4.7092	1.83749
4.70493	1.76255
4.70066	1.6738
4.69641	1.60675
4.69216	1.65751
4.68791	1.75711
4.68368	1.77741
4.67945	1.82418
4.67523	1.85021
4.67102	1.79854
4.66682	1.79695
4.66262	1.7989
4.65843	1.80709
4.65425	1.76705
4.65007	1.74331
4.64591	1.73532
4.64175	1.72868
4.6376	1.83334
4.63345	1.79885
4.62932	1.76779
4.62519	1.76389
4.62106	1.75133
4.61695	1.76058
4.61284	1.77297
4.60874	1.70226
4.60465	1.71599
4.60056	1.79913
4.59648	1.77033
4.59241	1.75587
4.58835	1.81385
4.58429	1.90316
4.58024	1.9087
4.5762	1.85355
4.57216	1.79959
4.56814	1.75943
4.56411	1.77173
4.5601	1.81852
4.55609	1.84949
4.55209	1.84562
4.5481	1.89054
4.54411	1.8793
4.54013	1.84898
4.53616	1.87766
4.5322	1.9298
4.52824	1.84036
4.52429	1.74262
4.52034	1.77626
4.51641	1.8343
4.51247	1.78854
4.50855	1.77811
4.50463	1.7955
4.50072	1.77549
4.49682	1.80146
4.49292	1.90673
4.48903	1.83258
4.48515	1.72643
4.48127	1.79087
4.4774	1.89273
4.47354	1.88364
4.46968	1.85587
4.46584	1.91007
4.46199	1.91131
4.45815	1.87766
4.45432	1.90215
4.4505	1.89899
4.44668	1.86849
4.44287	1.8893
4.43907	1.90058
4.43527	1.89836
4.43148	1.89164
4.4277	1.90002
4.42392	1.93284
4.42015	1.93944
4.41638	1.8599
4.41262	1.91548
4.40887	1.96209
4.40513	1.91783
4.40139	1.83557
4.39765	1.8702
4.39393	1.94662
4.39021	2.00458
4.38649	2.04591
4.38278	1.9638
4.37908	1.89572
4.37539	1.93178
4.3717	1.97257
4.36801	1.97882
4.36434	1.94294
4.36067	1.88824
4.357	1.94532
4.35335	2.0532
4.34969	2.10537
4.34605	2.00372
4.34241	1.95802
4.33877	2.00859
4.33514	2.01246
4.33152	1.93845
4.32791	1.9186
4.3243	1.94402
4.32069	1.96471
4.3171	1.99001
4.31351	2.03597
4.30992	1.9961
4.30634	1.99572
4.30277	1.99617
4.2992	1.9392
4.29564	1.87656
4.29208	1.91423
4.28853	1.98697
4.28499	2.0229
4.28145	2.03205
4.27792	2.05357
4.27439	2.04839
4.27087	1.97052
4.26735	2.03009
4.26384	2.12361
4.26034	2.10677
4.25684	1.99828
4.25335	1.98462
4.24986	1.9855
4.24638	1.97084
4.24291	1.99735
4.23944	1.98101
4.23598	2.03703
4.23252	2.05308
4.22906	2.06434
4.22562	2.08184
4.22218	2.09683
4.21874	2.10438
4.21531	2.06527
4.21189	2.02542
4.20847	1.94842
4.20506	1.93601
4.20165	1.9727
4.19825	2.0147
4.19485	1.98678
4.19146	1.95476
4.18807	1.99036
4.18469	2.02773
4.18132	2.03149
4.17795	1.97812
4.17458	1.93314
4.17123	1.98958
4.16787	2.08644
4.16453	2.07
4.16118	2.05675
4.15785	2.12117
4.15451	2.06185
4.15119	2.01258
4.14787	2.01059
4.14455	1.98638
4.14124	1.96065
4.13794	1.95962
4.13464	2.03354
4.13134	2.07921
4.12805	2.08151
4.12477	2.10752
4.12149	2.07523
4.11822	2.0293
4.11495	2.03303
4.11168	2.09612
4.10843	2.09871
4.10517	2.07802
4.10192	1.97961
4.09868	1.91344
4.09545	1.96594
4.09221	2.08069
4.08899	2.13675
4.08576	2.08297
4.08255	2.06545
4.07933	2.08747
4.07613	1.9619
4.07292	1.96158
4.06973	2.01682
4.06654	2.0132
4.06335	2.09842
4.06017	2.05715
4.05699	2.05428
4.05382	2.06912
4.05065	2.0224
4.04749	1.97821
4.04433	1.96593
4.04118	2.0223
4.03803	2.03452
4.03489	2.00267
4.03175	2.06559
4.02862	2.07995
4.02549	2.02466
4.02237	2.01769
4.01925	2.04033
4.01614	2.03036
4.01303	1.98316
4.00993	1.95481
4.00683	1.93017
4.00373	1.98655
4.00064	2.08661
3.99756	2.0931
3.99448	2.07145
3.9914	2.02507
3.98833	2.03117
3.98527	1.96506
3.98221	1.98651
3.97915	2.08186
3.9761	2.11292
3.97305	2.04403
3.97001	1.98401
3.96697	1.99396
3.96394	2.07166
3.96091	2.06113
3.95789	2.0034
3.95487	2.02881
3.95186	2.05702
3.94885	1.97718
3.94584	1.92553
3.94284	1.89956
3.93984	1.96489
3.93685	2.05595
3.93386	2.07332
3.93088	2.01325
3.9279	1.97812
3.92493	2.04491
3.92196	2.05303
3.919	1.97849
3.91604	1.94989
3.91308	1.92978
3.91013	1.9738
3.90718	2.0138
3.90424	2.00962
3.9013	2.00614
3.89837	2.03494
3.89544	2.05064
3.89252	2.106
3.8896	2.16549
3.88668	2.16231
3.88377	2.10663
3.88086	2.03414
3.87796	1.99373
3.87506	2.01451
3.87217	2.08485
3.86928	2.16892
3.86639	2.11095
3.86351	2.03577
3.86064	2.04499
3.85776	2.06609
3.8549	2.11581
3.85203	2.1353
3.84917	2.1622
3.84631	2.12357
3.84346	2.03085
3.84062	1.99839
3.83777	2.06338
3.83494	2.04102
3.8321	2.02044
3.82927	2.09452
3.82644	2.17664
3.82362	2.1953
3.82081	2.14649
3.81799	2.15178
3.81518	2.14721
3.81238	2.14099
3.80958	2.13196
3.80678	2.05825
3.80399	1.95581
3.8012	2.08855
3.79841	2.20053
3.79563	2.16973
3.79286	2.1188
3.79008	2.20654
3.78731	2.195
3.78455	2.12067
3.78179	2.11496
3.77903	2.00579
3.77628	1.98152
3.77353	2.06104
3.77079	2.10443
3.76805	2.14243
3.76531	2.17097
3.76258	2.13352
3.75985	2.14231
3.75713	2.23389
3.7544	2.19369
3.75169	2.10801
3.74898	2.23064
3.74627	2.33273
3.74356	2.22617
3.74086	2.12237
3.73816	2.15147
3.73547	2.19374
3.73278	2.24672
3.7301	2.28723
3.72741	2.24142
3.72474	2.13137
3.72206	2.09906
3.71939	2.08735
3.71673	2.08867
3.71406	2.14513
3.71141	2.11043
3.70875	2.17043
3.7061	2.27433
3.70345	2.28799
3.70081	2.26865
3.69817	2.18846
3.69553	2.12904
3.6929	2.10441
3.69027	2.1435
3.68765	2.21532
3.68503	2.22237
3.68241	2.10198
3.6798	2.06978
3.67719	2.19609
3.67458	2.21399
3.67198	2.23283
3.66938	2.22782
3.66678	2.22252
3.66419	2.23333
3.66161	2.18936
3.65902	2.18809
3.65644	2.17732
3.65387	2.19125
3.65129	2.25237
3.64872	2.26769
3.64616	2.29695
3.64359	2.31063
3.64103	2.22648
3.63848	2.18033
3.63593	2.20478
3.63338	2.19661
3.63084	2.17105
3.6283	2.23129
3.62576	2.28206
3.62322	2.2243
3.62069	2.13636
3.61817	2.16821
3.61564	2.20254
3.61312	2.22019
3.61061	2.2982
3.6081	2.30891
3.60559	2.27812
3.60308	2.21923
3.60058	2.25322
3.59808	2.29251
3.59558	2.22046
3.59309	2.17192
3.59061	2.1481
3.58812	2.16885
3.58564	2.15495
3.58316	2.0922
3.58069	2.16073
3.57822	2.36195
3.57575	2.40204
3.57328	2.26553
3.57082	2.26594
3.56836	2.28377
3.56591	2.24047
3.56346	2.31204
3.56101	2.32221
3.55857	2.22414
3.55613	2.26697
3.55369	2.26453
3.55126	2.3159
3.54883	2.31416
3.5464	2.32098
3.54397	2.33129
3.54155	2.2893
3.53914	2.28976
3.53672	2.28282
3.53431	2.33301
3.5319	2.32216
3.5295	2.32189
3.5271	2.27963
3.5247	2.32198
3.52231	2.26647
3.51991	2.1785
3.51753	2.216
3.51514	2.27022
3.51276	2.29842
3.51038	2.31625
3.50801	2.34398
3.50563	2.36358
3.50327	2.32831
3.5009	2.37194
3.49854	2.40971
3.49618	2.361
3.49382	2.26752
3.49147	2.30937
3.48912	2.37787
3.48677	2.36248
3.48443	2.35598
3.48209	2.36058
3.47975	2.37868
3.47742	2.40964
3.47509	2.45085
3.47276	2.387
3.47044	2.36406
3.46812	2.39895
3.4658	2.33021
3.46348	2.30931
3.46117	2.39382
3.45886	2.49126
3.45656	2.49045
3.45425	2.45203
3.45195	2.369
3.44966	2.35814
3.44736	2.31938
3.44507	2.3547
3.44279	2.42863
3.4405	2.49583
3.43822	2.4583
3.43594	2.48173
3.43367	2.51778
3.43139	2.49865
3.42912	2.40005
3.42686	2.43722
3.42459	2.49692
3.42233	2.43258
3.42007	2.53173
3.41782	2.5445
3.41557	2.48072
3.41332	2.4527
3.41108	2.37993
3.40883	2.27347
3.40659	2.30181
3.40435	2.41006
3.40212	2.48098
3.39989	2.49869
3.39766	2.54908
3.39544	2.45234
3.39322	2.35233
3.391	2.43552
3.38878	2.48905
3.38657	2.52713
3.38436	2.59674
3.38215	2.53254
3.37994	2.45395
3.37774	2.39003
3.37554	2.37997
3.37335	2.55973
3.37115	2.76354
3.36896	2.65932
3.36678	2.52453
3.36459	2.43041
3.36241	2.48569
3.36023	2.60184
3.35805	2.64197
3.35588	2.69351
3.35371	2.59804
3.35154	2.49304
3.34938	2.42574
3.34721	2.40134
3.34505	2.51285
3.3429	2.55141
3.34074	2.52253
3.33859	2.55233
3.33644	2.54885
3.3343	2.55748
3.33215	2.59486
3.33001	2.5752
3.32788	2.57481
3.32574	2.54506
3.32361	2.49058
3.32148	2.58972
3.31936	2.56193
3.31723	2.50385
3.31511	2.45487
3.31299	2.59534
3.31088	2.62267
3.30876	2.48349
3.30665	2.41714
3.30455	2.42586
3.30244	2.54802
3.30034	2.61043
3.29824	2.60144
3.29614	2.54508
3.29405	2.50432
3.29196	2.54583
3.28987	2.58061
3.28778	2.61554
3.2857	2.66116
3.28362	2.60053
3.28154	2.52621
3.27946	2.54491
3.27739	2.60353
3.27532	2.59007
3.27325	2.54481
3.27119	2.61029
3.26913	2.7124
3.26707	2.64332
3.26501	2.55994
3.26295	2.62854
3.2609	2.59675
3.25885	2.51103
3.2568	2.51494
3.25476	2.60472
3.25272	2.68764
3.25068	2.72767
3.24864	2.69496
3.24661	2.67356
3.24458	2.63236
3.24255	2.58401
3.24052	2.53904
3.2385	2.58945
3.23648	2.64294
3.23446	2.73378
3.23244	2.74369
3.23043	2.67594
3.22841	2.65558
3.2264	2.80262
3.2244	2.74501
3.22239	2.69742
3.22039	2.63581
3.21839	2.60643
3.2164	2.68
3.2144	2.74671
3.21241	2.74858
3.21042	2.69046
3.20844	2.69807
3.20645	2.75093
3.20447	2.74321
3.20249	2.7224
3.20051	2.7315
3.19854	2.73859
3.19657	2.67155
3.1946	2.74065
3.19263	2.76482
3.19067	2.69085
3.1887	2.61618
3.18674	2.78657
3.18479	2.83784
3.18283	2.672
3.18088	2.6412
3.17893	2.64065
3.17698	2.67204
3.17504	2.65638
3.17309	2.62102
3.17115	2.58578
3.16921	2.53009
3.16728	2.51377
3.16534	2.56506
3.16341	2.57382
3.16148	2.54003
3.15956	2.56855
3.15763	2.55701
3.15571	2.56039
3.15379	2.44824
3.15187	2.45555
3.14996	2.51557
3.14805	2.62013
3.14614	2.58501
3.14423	2.48775
3.14232	2.4259
3.14042	2.40773
3.13852	2.35169
3.13662	2.35104
3.13472	2.37625
3.13283	2.42514
3.13094	2.30869
3.12905	2.34648
3.12716	2.43979
3.12528	2.45095
3.12339	2.50015
3.12151	2.3757
3.11964	2.31134
3.11776	2.35469
3.11589	2.34362
3.11401	2.37261
3.11214	2.43642
3.11028	2.39872
3.10841	2.38041
3.10655	2.33304
3.10469	2.3476
3.10283	2.4014
3.10098	2.4011
3.09912	2.34467
3.09727	2.32465
3.09542	2.35349
3.09358	2.37731
3.09173	2.39241
3.08989	2.31392
3.08805	2.17971
3.08621	2.20472
3.08437	2.23616
3.08254	2.2033
3.08071	2.21026
3.07888	2.16414
3.07705	2.14552
3.07523	2.17719
3.0734	2.09802
3.07158	2.16366
3.06977	2.18783
3.06795	2.176
3.06613	2.20847
3.06432	2.16663
3.06251	2.08308
3.0607	2.05962
3.0589	2.08539
3.0571	2.15571
3.05529	2.17438
3.05349	1.9697
3.0517	1.89981
3.0499	1.97964
3.04811	1.92035
3.04632	1.92015
3.04453	2.10038
3.04274	2.11376
3.04096	1.99997
3.03918	1.86018
3.0374	1.82589
3.03562	1.91604
3.03384	2.01666
3.03207	2.00087
3.03029	1.88649
3.02852	1.83978
3.02676	1.88296
3.02499	1.98364
3.02323	1.85357
3.02146	1.65671
3.0197	1.61412
3.01795	1.58561
3.01619	1.54345
3.01444	1.73727
3.01269	1.81432
3.01094	1.69373
3.00919	1.63223
3.00744	1.46955
3.0057	1.36934
3.00396	1.46948
3.00222	1.6366
3.00048	1.6614
2.99875	1.55848
2.99701	1.6002
2.99528	1.54938
2.99355	1.41918
2.99183	1.23399
2.9901	1.27807
2.98838	1.5005
2.98666	1.72413
2.98494	1.91362
2.98322	1.74246
2.9815	1.55477
2.97979	1.38821
2.97808	1.32912
2.97637	1.34763
2.97466	1.31254
2.97295	1.30487
2.97125	1.13332
2.96955	1.16657
2.96785	1.34504
2.96615	1.27626
2.96446	1.40306
2.96276	1.54321
2.96107	1.42052
2.95938	1.33834
2.95769	1.45419
2.95601	1.45713
2.95432	1.50929
2.95264	1.50514
2.95096	1.53618
2.94928	1.39376
2.9476	1.34282
2.94593	1.4305
2.94425	1.51566
2.94258	1.39925
2.94092	1.276
2.93925	1.30161
2.93758	1.20442
2.93592	1.08891
2.93426	1.29335
2.9326	1.41189
2.93094	1.45552
2.92928	1.42707
2.92763	1.43174
2.92598	1.48996
2.92433	1.39536
2.92268	1.4553
2.92103	1.60808
2.91939	1.56316
2.91775	1.48073
2.9161	1.42799
2.91447	1.30686
2.91283	1.2406
2.91119	1.38009
2.90956	1.57329
2.90793	1.6341
2.9063	1.60114
2.90467	1.40128
2.90304	1.41616
2.90142	1.52787
2.89979	1.50405
2.89817	1.52707
2.89656	1.5492
2.89494	1.47769
2.89332	1.48402
2.89171	1.51688
2.8901	1.49865
2.88849	1.55198
2.88688	1.61141
2.88527	1.54539
2.88367	1.52962
2.88206	1.46631
2.88046	1.42153
2.87886	1.49512
2.87727	1.63098
2.87567	1.62983
2.87408	1.57012
2.87248	1.5987
2.87089	1.7064
2.8693	1.71372
2.86772	1.65299
2.86613	1.7045
2.86455	1.60652
2.86297	1.46749
2.86139	1.53702
2.85981	1.71178
2.85823	1.73518
2.85666	1.78631
2.85508	1.79595
2.85351	1.61565
2.85194	1.46025
2.85038	1.51459
2.84881	1.45261
2.84724	1.52806
2.84568	1.71607
2.84412	1.75251
2.84256	1.81991
2.841	1.77853
2.83945	1.69362
2.83789	1.65703
2.83634	1.59924
2.83479	1.57073
2.83324	1.60371
2.83169	1.52116
2.83015	1.47063
2.82861	1.62996
2.82706	1.66731
2.82552	1.68318
2.82398	1.67961
2.82245	1.64489
2.82091	1.60705
2.81938	1.74128
2.81784	1.94955
2.81631	1.77117
2.81479	1.68495
2.81326	1.75292
2.81173	1.63413
2.81021	1.76472
2.80869	1.89474
2.80716	1.77585
2.80565	1.62991
2.80413	1.58884
2.80261	1.65408
2.8011	1.65624
2.79959	1.65809
2.79808	1.71961
2.79657	1.78959
2.79506	1.81728
2.79355	1.76223
2.79205	1.79304
2.79055	2.00533
2.78904	2.18864
2.78754	2.34162
2.78605	2.15385
2.78455	1.92885
2.78306	1.9362
2.78156	1.95358
2.78007	2.06202
2.77858	2.21037
2.77709	2.04684
2.77561	1.86272
2.77412	1.75262
2.77264	1.53772
2.77116	1.32096
2.76968	1.22321
2.7682	1.39723
2.76672	1.33426
2.76524	1.31423
2.76377	1.48913
2.7623	1.32385
2.76083	1.24454
2.75936	1.21503
2.75789	1.36374
2.75642	1.51433
2.75496	1.32993
2.7535	1.25024
2.75203	1.40357
2.75057	1.49621
2.74912	1.52075
2.74766	1.5638
2.7462	1.48218
2.74475	1.39813
2.7433	1.37668
2.74185	1.49447
2.7404	1.6696
2.73895	1.63105
2.7375	1.70454
2.73606	1.79297
2.73462	1.72624
2.73318	1.7205
2.73174	1.68302
2.7303	1.66035
2.72886	1.57435
2.72742	1.57693
2.72599	1.75301
2.72456	1.79063
2.72313	1.80366
2.7217	1.80445
2.72027	1.72057
2.71884	1.62942
2.71742	1.61667
2.71599	1.62314
2.71457	1.67966
2.71315	1.81648
2.71173	1.84322
2.71032	1.76755
2.7089	1.80816
2.70748	1.85743
2.70607	1.90688
2.70466	1.95468
2.70325	1.92065
2.70184	1.93448
2.70043	1.90316
2.69903	1.98953
2.69762	2.06474
2.69622	1.92119
2.69482	1.91774
2.69342	2.07238
2.69202	2.10074
2.69062	2.12729
2.68923	2.12171
2.68783	2.08759
2.68644	2.12977
2.68505	2.32575
2.68366	2.36397
2.68227	2.30399
2.68089	2.35278
2.6795	2.24604
2.67812	2.13266
2.67673	2.23743
2.67535	2.2971
2.67397	2.32332
2.6726	2.35066
2.67122	2.27505
2.66984	2.20878
2.66847	2.22584
2.6671	2.393
2.66572	2.48072
2.66435	2.57152
2.66299	2.66471
2.66162	2.63531
2.66025	2.53125
2.65889	2.62828
2.65753	2.62502
2.65616	2.65564
2.65481	2.68323
2.65345	2.65129
2.65209	2.54412
2.65073	2.52306
2.64938	2.66033
2.64803	2.67174
2.64667	2.61347
2.64532	2.7848
2.64397	2.89282
2.64263	2.84017
2.64128	2.79719
2.63994	2.72907
2.63859	2.73449
2.63725	2.80286
2.63591	2.91881
2.63457	2.97837
2.63323	2.91905
2.6319	2.85192
2.63056	2.97558
2.62923	3.00147
2.62789	2.94362
2.62656	2.96521
2.62523	3.00152
2.6239	2.98632
2.62258	2.90925
2.62125	3.08544
2.61993	3.26517
2.6186	3.27435
2.61728	3.189
2.61596	3.17257
2.61464	3.15694
2.61332	3.15815
2.61201	3.19937
2.61069	3.21428
2.60938	3.0952
2.60807	3.15409
2.60675	3.33621
2.60544	3.27858
2.60414	3.08307
2.60283	3.06808
2.60152	3.11248
2.60022	3.16123
2.59891	3.22406
2.59761	3.25783
2.59631	3.33375
2.59501	3.42955
2.59371	3.363
2.59242	3.33508
2.59112	3.47641
2.58983	3.45145
2.58853	3.51612
2.58724	3.44663
2.58595	3.23772
2.58466	3.24939
2.58338	3.33523
2.58209	3.40636
2.5808	3.52578
2.57952	3.58947
2.57824	3.50794
2.57695	3.42278
2.57567	3.38426
2.5744	3.37266
2.57312	3.46668
2.57184	3.51779
2.57057	3.48369
2.56929	3.46692
2.56802	3.59602
2.56675	3.68856
2.56548	3.59058
2.56421	3.51897
2.56294	3.54373
2.56168	3.57773
2.56041	3.55336
2.55915	3.56382
2.55789	3.62625
2.55662	3.62108
2.55536	3.6151
2.5541	3.55888
2.55285	3.59587
2.55159	3.63686
2.55034	3.55745
2.54908	3.55123
2.54783	3.61887
2.54658	3.60914
2.54533	3.73856
2.54408	3.86017
2.54283	3.84656
2.54159	3.8592
2.54034	3.97244
2.5391	4.07638
2.53785	4.06832
2.53661	4.0937
2.53537	4.2252
2.53413	4.27612
2.53289	4.28805
2.53166	4.30023
2.53042	4.22832
2.52919	4.42488
2.52795	4.41474
2.52672	4.22713
2.52549	4.34543
2.52426	4.47438
2.52303	4.49763
2.52181	4.59538
2.52058	4.64535
2.51936	4.50175
2.51813	4.45484
2.51691	4.73592
2.51569	4.91023
2.51447	4.7392
2.51325	4.45563
2.51203	4.44405
2.51082	4.57045
2.5096	4.53411
2.50839	4.41336
2.50717	4.4929
2.50596	4.53706
2.50475	4.55332
2.50354	4.53276
2.50233	4.48066
2.50113	4.58171
2.49992	4.61789
2.49872	4.63352
2.49751	4.58815
2.49631	4.62123
2.49511	4.66267
2.49391	4.46494
2.49271	4.50067
2.49151	4.64501
2.49031	4.67476
2.48912	4.63209
2.48792	4.55385
2.48673	4.65237
2.48554	4.81783
2.48435	4.8983
2.48316	4.83668
2.48197	4.77292
2.48078	4.79329
2.4796	4.69414
2.47841	4.54837
2.47723	4.67755
2.47604	4.74609
2.47486	4.63541
2.47368	4.62829
2.4725	4.74509
2.47132	4.71801
2.47014	4.60056
2.46897	4.49002
2.46779	4.45479
2.46662	4.52429
2.46545	4.53364
2.46427	4.58866
2.4631	4.46486
2.46193	4.43495
2.46077	4.58059
2.4596	4.73862
2.45843	4.71024
2.45727	4.72018
2.4561	4.63249
2.45494	4.48711
2.45378	4.42314
2.45262	4.49644
2.45146	4.65501
2.4503	4.75089
2.44914	4.73332
2.44799	4.65156
2.44683	4.62527
2.44568	4.68287
2.44452	4.73193
2.44337	4.73503
2.44222	4.76319
2.44107	4.86592
2.43992	4.9169
2.43877	5.05539
2.43763	5.09895
2.43648	5.09876
2.43534	5.07124
2.43419	4.87765
2.43305	4.89616
2.43191	4.98087
2.43077	5.10527
2.42963	5.30237
2.42849	5.28454
2.42736	5.11801
2.42622	5.05334
2.42509	5.10493
2.42395	5.23766
2.42282	5.30538
2.42169	5.34498
2.42056	5.38241
2.41943	5.40059
2.4183	5.43339
2.41717	5.48196
2.41605	5.50883
2.41492	5.54013
2.4138	5.61004
2.41267	5.51736
2.41155	5.48715
2.41043	5.4779
2.40931	5.57106
2.40819	5.65667
2.40707	5.79924
2.40595	5.91476
2.40484	5.93092
2.40372	5.85037
2.40261	5.98544
2.4015	6.25908
2.40039	6.32062
2.39928	6.29157
2.39817	6.31897
2.39706	6.35731
2.39595	6.44478
2.39484	6.68695
2.39374	6.82757
2.39263	6.85942
2.39153	6.93715
2.39043	6.93612
2.38932	6.98305
2.38822	7.03506
2.38712	7.15865
2.38603	7.33458
2.38493	7.49139
2.38383	7.75375
2.38274	7.80482
2.38164	7.68157
2.38055	7.77723
2.37946	7.99114
2.37836	8.24062
2.37727	8.47287
2.37618	8.44207
2.3751	8.35949
2.37401	8.41442
2.37292	8.56294
2.37184	8.6801
2.37075	8.79354
2.36967	8.94827
2.36859	8.97887
2.3675	8.94618
2.36642	9.10115
2.36534	9.33265
2.36427	9.55633
2.36319	9.78304
2.36211	9.8687
2.36104	9.84586
2.35996	9.85822
2.35889	10.0356
2.35781	10.268
2.35674	10.5228
2.35567	10.7817
2.3546	10.8142
2.35353	10.7605
2.35247	10.7143
2.3514	10.7149
2.35033	10.8351
2.34927	10.901
2.3482	11.0345
2.34714	11.1119
2.34608	11.195
2.34502	11.2831
2.34396	11.3839
2.3429	11.5296
2.34184	11.5176
2.34078	11.5083
2.33973	11.4582
2.33867	11.6075
2.33762	11.8646
2.33656	11.8788
2.33551	11.9595
2.33446	12.1244
2.33341	12.1105
2.33236	12.1442
2.33131	12.1388
2.33026	12.2093
2.32922	12.4443
2.32817	12.4764
2.32712	12.4971
2.32608	12.59
2.32504	12.7139
2.324	12.7896
2.32295	12.8732
2.32191	13.0468
2.32087	13.0765
2.31984	12.9871
2.3188	12.7939
2.31776	12.7791
2.31673	13.1428
2.31569	13.3593
2.31466	13.2835
2.31362	13.0787
2.31259	13.098
2.31156	13.3463
2.31053	13.4966
2.3095	13.4258
2.30847	13.3411
2.30745	13.1736
2.30642	13.0048
2.3054	13.0957
2.30437	13.1168
2.30335	13.2225
2.30232	13.181
2.3013	13.2225
2.30028	13.2546
2.29926	13.1768
2.29824	13.2537
2.29722	13.3388
2.29621	13.3055
2.29519	13.3568
2.29417	13.1867
2.29316	13.0839
2.29215	13.1609
2.29113	13.1699
2.29012	13.1931
2.28911	13.1989
2.2881	13.2476
2.28709	13.2857
2.28608	13.2188
2.28507	13.1676
2.28407	13.1696
2.28306	13.1623
2.28206	13.1118
2.28105	13.1462
2.28005	13.0341
2.27905	12.8923
2.27805	12.721
2.27705	12.7896
2.27605	12.8466
2.27505	12.7241
2.27405	12.5713
2.27305	12.5581
2.27206	12.5285
2.27106	12.42
2.27007	12.3954
2.26907	12.4375
2.26808	12.3336
2.26709	12.1998
2.2661	12.1458
2.26511	12.2067
2.26412	12.1163
2.26313	12.0844
2.26214	12.1231
2.26116	12.186
2.26017	12.1888
2.25919	12.1659
2.2582	12.0592
2.25722	11.8572
2.25624	11.8563
2.25526	11.9449
2.25428	11.8821
2.2533	11.7791
2.25232	11.6815
2.25134	11.4768
2.25036	11.3964
2.24939	11.2454
2.24841	10.9816
2.24744	11.0332
2.24646	11.1503
2.24549	11.0712
2.24452	10.8598
2.24355	10.7112
2.24257	10.506
2.24161	10.3941
2.24064	10.4228
2.23967	10.3397
2.2387	10.2736
2.23774	10.2655
2.23677	10.2531
2.23581	9.95888
2.23484	9.80958
2.23388	9.89251
2.23292	9.79649
2.23196	9.7346
2.231	9.7277
2.23004	9.6633
2.22908	9.64577
2.22812	9.50075
2.22716	9.17974
2.22621	9.11032
2.22525	9.25548
2.2243	9.27811
2.22334	9.1943
2.22239	8.92767
2.22144	8.88353
2.22049	9.0224
2.21953	9.0184
2.21859	8.98247
2.21764	8.92811
2.21669	8.79406
2.21574	8.69418
2.21479	8.59633
2.21385	8.42995
2.2129	8.28463
2.21196	8.16772
2.21102	8.11401
2.21007	8.00609
2.20913	7.77705
2.20819	7.76783
2.20725	7.75601
2.20631	7.70219
2.20537	7.7785
2.20444	7.73863
2.2035	7.65313
2.20256	7.53455
2.20163	7.3901
2.20069	7.60143
2.19976	7.93604
2.19883	8.03894
2.19789	7.94024
2.19696	7.90477
2.19603	7.95266
2.1951	7.98085
2.19417	8.17402
2.19325	8.34876
2.19232	8.34602
2.19139	8.18778
2.19047	8.14042
2.18954	8.23641
2.18862	8.37213
2.18769	8.42691
2.18677	8.48716
2.18585	8.68999
2.18493	8.77892
2.18401	8.85327
2.18309	8.79542
2.18217	8.62624
2.18125	8.6298
2.18033	8.86547
2.17942	8.86257
2.1785	8.76538
2.17759	8.51926
2.17667	8.45484
2.17576	8.67507
2.17485	8.85309
2.17393	8.80132
2.17302	8.59726
2.17211	8.754
2.1712	9.04981
2.17029	9.12837
2.16939	9.00401
2.16848	8.99519
2.16757	9.03317
2.16667	8.86525
2.16576	8.88076
2.16486	9.0307
2.16395	9.10738
2.16305	9.12271
2.16215	9.17708
2.16125	9.15574
2.16035	9.35975
2.15945	9.56696
2.15855	9.60297
2.15765	9.76388
2.15675	9.76739
2.15586	9.8391
2.15496	10.0801
2.15406	10.1602
2.15317	9.9682
2.15228	10.0849
2.15138	10.4439
2.15049	10.5239
2.1496	10.5551
2.14871	10.5631
2.14782	10.5093
2.14693	10.673
2.14604	10.8822
2.14515	10.9425
2.14427	10.8564
2.14338	10.9192
2.14249	11.1569
2.14161	11.0053
2.14072	10.6797
2.13984	10.5226
2.13896	10.4716
2.13808	10.565
2.13719	10.7031
2.13631	10.4831
2.13543	10.2974
2.13455	10.3759
2.13368	10.5249
2.1328	10.3704
2.13192	10.0588
2.13105	9.71828
2.13017	9.58572
2.1293	9.52305
2.12842	9.28404
2.12755	9.11973
2.12668	9.18494
2.1258	9.27663
2.12493	9.0123
2.12406	8.8713
2.12319	8.80995
2.12232	8.32166
2.12145	8.01678
2.12059	7.97249
2.11972	8.04222
2.11885	7.87759
2.11799	7.65792
2.11712	7.50993
2.11626	7.45398
2.1154	7.34044
2.11453	7.23584
2.11367	7.03832
2.11281	6.97885
2.11195	6.8854
2.11109	6.85278
2.11023	7.04146
2.10937	7.0079
2.10851	6.98015
2.10766	6.94695
2.1068	6.73156
2.10594	6.59966
2.10509	6.54961
2.10423	6.89182
2.10338	7.09411
2.10253	6.73187
2.10168	6.67743
2.10082	7.03051
2.09997	7.28484
2.09912	7.42935
2.09827	7.54316
2.09742	7.41662
2.09658	7.47648
2.09573	7.75741
2.09488	8.00593
2.09404	8.56194
2.09319	8.99093
2.09235	9.38894
2.0915	9.94857
2.09066	10.3169
2.08982	10.548
2.08897	10.764
2.08813	10.9714
2.08729	11.0587
2.08645	11.379
2.08561	12.0095
2.08477	12.1357
2.08394	12.3579
2.0831	12.6229
2.08226	12.4655
2.08143	12.496
2.08059	12.7769
2.07976	13.3796
2.07892	13.4099
2.07809	13.6183
2.07726	13.8108
2.07643	14.0712
2.07559	13.9977
2.07476	13.5998
2.07393	13.4688
2.0731	13.5462
2.07228	13.5727
2.07145	13.6511
2.07062	13.6465
2.06979	13.7578
2.06897	14.0465
2.06814	14.3667
2.06732	14.1988
2.06649	13.8974
2.06567	13.7014
2.06485	13.9751
2.06403	14.2924
2.0632	14.3589
2.06238	14.0972
2.06156	13.9738
2.06074	14.0377
2.05993	14.1157
2.05911	14.4195
2.05829	14.4053
2.05747	14.2881
2.05666	14.3325
2.05584	14.4298
2.05503	14.4637
2.05421	14.4995
2.0534	14.4495
2.05259	14.4088
2.05177	14.2286
2.05096	14.3202
2.05015	14.4527
2.04934	14.5245
2.04853	14.5073
2.04772	14.4306
2.04691	14.4887
2.04611	14.3911
2.0453	14.2821
2.04449	14.3763
2.04369	14.5988
2.04288	14.4707
2.04208	14.2045
2.04127	14.2388
2.04047	14.3278
2.03967	14.2979
2.03886	14.1908
2.03806	14.1499
2.03726	14.3694
2.03646	14.4338
2.03566	14.1948
2.03486	14.2233
2.03407	14.4108
2.03327	14.4494
2.03247	14.4244
2.03167	14.2444
2.03088	14.1434
2.03008	13.9402
2.02929	14.0649
2.0285	14.3027
2.0277	14.1437
2.02691	14.0768
2.02612	14.1345
2.02533	14.1155
2.02453	14.1417
2.02374	14.0423
2.02295	14.0665
2.02217	14.0101
2.02138	13.9686
2.02059	13.8758
2.0198	13.9835
2.01902	14.2448
2.01823	14.1358
2.01744	13.9585
2.01666	13.8042
2.01588	13.7298
2.01509	13.8122
2.01431	13.9265
2.01353	13.7763
2.01275	13.5136
2.01196	13.5196
2.01118	13.743
2.0104	14.0056
2.00963	13.9012
2.00885	13.6535
2.00807	13.4622
2.00729	13.5519
2.00651	13.485
2.00574	13.2523
2.00496	13.1918
2.00419	13.3741
2.00341	13.4297
2.00264	13.3289
2.00187	13.289
2.00109	13.2699
2.00032	13.1781
