Name: Pyrite FeS_2
Type: Mineral
Class: Sulfides
Subclass: 
Particle Size: 0-45um
Sample No.: S-2A
Owner: JPL
Wavelength range: IR
Origin: Italy, Tuscany, Elba, Rio Marina Isle
Collected by Ward's
Description: 





Measurement: Hemispherical reflectance
First Column: X
Second Column: Y
X Units:  Wavelength (micrometers)
Y Units:  Reflectance (percent)
First X Value: 15.3853
Last X Value: 2.00032
Number of X Values: 2256
Additional information: s02aa.txt
 
15.3853	2.76624
15.3397	2.64952
15.2945	2.54557
15.2495	2.79322
15.2048	2.96634
15.1603	2.81141
15.1161	2.831
15.0722	2.73802
15.0285	2.78613
14.9851	2.80282
14.9419	2.73063
14.8989	2.75698
14.8563	2.95794
14.8138	2.86329
14.7716	2.67227
14.7296	2.55668
14.6879	2.4438
14.6464	2.81511
14.6052	2.96065
14.5641	2.67072
14.5233	2.7418
14.4828	2.79162
14.4424	2.78116
14.4023	2.80069
14.3624	2.60223
14.3227	2.66319
14.2833	2.90607
14.244	3.08235
14.205	2.93807
14.1662	2.70201
14.1276	2.83284
14.0892	3.0006
14.051	2.95577
14.0131	2.84466
13.9753	2.74541
13.9377	2.72355
13.9004	2.77536
13.8632	2.70723
13.8262	2.69149
13.7895	2.63032
13.7529	2.516
13.7165	2.60458
13.6803	2.84831
13.6443	2.89473
13.6085	2.74547
13.5729	2.78272
13.5374	2.85588
13.5022	3.00839
13.4671	3.05861
13.4322	2.98251
13.3975	3.02195
13.363	3.01694
13.3286	2.99408
13.2944	2.89127
13.2604	2.86114
13.2266	2.83117
13.193	2.73794
13.1595	2.79597
13.1262	2.69038
13.093	2.60629
13.06	2.76307
13.0272	2.84192
12.9946	2.71023
12.9621	2.63887
12.9298	2.65591
12.8976	2.60021
12.8656	2.78281
12.8337	2.96706
12.8021	2.95124
12.7705	2.92506
12.7391	2.95172
12.7079	2.91398
12.6769	2.83695
12.6459	2.80484
12.6152	2.90539
12.5845	2.91067
12.5541	2.70007
12.5238	2.69567
12.4936	2.92447
12.4635	2.89974
12.4337	2.84514
12.4039	2.81951
12.3743	2.72437
12.3448	2.56522
12.3155	2.74528
12.2863	2.94252
12.2573	2.98222
12.2284	2.89687
12.1996	2.83221
12.171	2.89071
12.1425	2.98644
12.1141	3.02566
12.0859	3.02145
12.0578	3.0612
12.0298	3.0693
12.0019	3.00438
11.9742	2.99657
11.9466	3.03851
11.9192	3.11208
11.8918	3.21614
11.8646	3.25683
11.8375	3.34471
11.8106	3.43467
11.7837	3.52552
11.757	3.62024
11.7304	3.46857
11.7039	3.42171
11.6776	3.46104
11.6513	3.52159
11.6252	3.57349
11.5992	3.55946
11.5733	3.45172
11.5475	3.47629
11.5219	3.644
11.4963	3.63056
11.4709	3.46283
11.4455	3.43081
11.4203	3.5588
11.3952	3.58961
11.3702	3.66522
11.3454	3.80771
11.3206	3.79356
11.2959	3.7272
11.2714	3.6061
11.2469	3.62978
11.2226	3.6416
11.1983	3.67994
11.1742	3.79601
11.1502	3.82999
11.1263	3.81131
11.1024	3.73086
11.0787	3.72191
11.0551	3.65238
11.0316	3.74342
11.0081	3.7896
10.9848	3.82731
10.9616	3.8427
10.9385	3.80965
10.9154	3.81611
10.8925	3.6632
10.8697	3.68629
10.8469	3.78658
10.8243	3.82543
10.8017	3.80396
10.7793	3.76347
10.7569	3.75309
10.7346	3.78222
10.7125	3.90978
10.6904	3.96083
10.6684	3.93127
10.6465	3.90083
10.6247	3.83679
10.6029	3.81156
10.5813	3.86963
10.5597	3.91025
10.5383	3.94192
10.5169	3.9182
10.4956	3.83841
10.4744	3.78788
10.4533	3.75313
10.4323	3.71903
10.4113	3.77508
10.3904	3.87352
10.3697	3.87846
10.349	3.75419
10.3284	3.79472
10.3078	3.92149
10.2874	3.98643
10.267	3.94713
10.2467	3.97492
10.2265	4.06227
10.2064	4.04384
10.1863	4.06863
10.1663	4.00213
10.1464	3.96868
10.1266	4.05372
10.1069	4.12866
10.0872	4.17439
10.0676	4.25325
10.0481	4.32526
10.0287	4.34496
10.0093	4.42244
9.99005	4.46687
9.97084	4.40601
9.95169	4.26675
9.93263	4.1876
9.91364	4.20097
9.89472	4.2186
9.87587	4.18387
9.8571	4.17575
9.83839	4.14164
9.81976	4.28192
9.80119	4.54029
9.78271	4.75004
9.76428	4.75296
9.74592	4.68622
9.72764	4.83931
9.70943	5.03752
9.69128	5.35359
9.6732	5.8928
9.65518	6.32459
9.63724	6.56095
9.61935	6.57951
9.60155	6.58837
9.5838	6.59199
9.56611	6.45376
9.5485	6.19301
9.53094	5.92191
9.51345	5.79262
9.49604	5.70059
9.47867	5.64443
9.46137	5.45282
9.44414	5.35139
9.42697	5.38876
9.40986	5.33425
9.39281	5.30361
9.37583	5.41838
9.35891	5.5313
9.34204	5.5896
9.32524	5.58097
9.3085	5.58812
9.29182	5.507
9.27519	5.4603
9.25863	5.5223
9.24213	5.39892
9.22568	5.47932
9.2093	5.60672
9.19297	5.61489
9.17669	5.47972
9.16048	5.3454
9.14433	5.25426
9.12823	5.23932
9.11218	5.09939
9.0962	5.02657
9.08027	5.11174
9.06439	5.00784
9.04858	4.91303
9.03281	4.97349
9.0171	5.00424
9.00145	5.19075
8.98585	5.24304
8.9703	5.08001
8.9548	5.05934
8.93937	5.09271
8.92398	5.07536
8.90865	5.16677
8.89337	5.23796
8.87814	5.29537
8.86296	5.361
8.84784	5.29312
8.83277	5.40375
8.81774	5.44183
8.80277	5.55234
8.78786	5.57524
8.77298	5.49989
8.75816	5.60093
8.7434	5.62503
8.72868	5.52029
8.714	5.4645
8.69938	5.52094
8.68481	5.58214
8.67029	5.48573
8.65581	5.30266
8.64139	5.18322
8.62701	5.24912
8.61268	5.27637
8.5984	5.45632
8.58416	5.62424
8.56997	5.60126
8.55583	5.61105
8.54174	5.7235
8.52769	5.7495
8.51368	5.80745
8.49973	5.62674
8.48582	5.6155
8.47195	5.70365
8.45813	5.70974
8.44436	5.78568
8.43062	5.85096
8.41693	5.70559
8.4033	5.58242
8.3897	5.57859
8.37614	5.56674
8.36264	5.55243
8.34917	5.51643
8.33574	5.64812
8.32236	5.65318
8.30903	5.57485
8.29573	5.537
8.28248	5.69231
8.26927	5.88436
8.2561	5.73603
8.24298	5.56184
8.2299	5.56155
8.21685	5.57662
8.20385	5.56175
8.19089	5.5276
8.17797	5.45246
8.16509	5.44833
8.15225	5.39791
8.13946	5.44839
8.1267	5.49445
8.11398	5.40302
8.10131	5.28814
8.08867	5.2808
8.07606	5.25499
8.0635	5.19473
8.05099	5.00863
8.0385	4.96274
8.02606	4.94322
8.01366	4.8419
8.00129	4.82057
7.98896	4.692
7.97667	4.60194
7.96442	4.5723
7.9522	4.51423
7.94002	4.4742
7.92788	4.46107
7.91578	4.42029
7.90371	4.35008
7.89168	4.31265
7.87969	4.41521
7.86773	4.49402
7.85581	4.37029
7.84392	4.24752
7.83207	4.24604
7.82026	4.22714
7.80849	4.21356
7.79674	4.27364
7.78503	4.26298
7.77337	4.23148
7.76173	4.29007
7.75012	4.30165
7.73856	4.25473
7.72703	4.23494
7.71553	4.19395
7.70406	4.12342
7.69263	4.13804
7.68123	4.16974
7.66987	4.28252
7.65855	4.37112
7.64725	4.37663
7.63598	4.23635
7.62475	4.25081
7.61356	4.39499
7.60239	4.39811
7.59126	4.27222
7.58017	4.19876
7.5691	4.21546
7.55806	4.29927
7.54707	4.34819
7.5361	4.31134
7.52516	4.37182
7.51425	4.35394
7.50338	4.33844
7.49253	4.30921
7.48172	4.28868
7.47094	4.29949
7.46019	4.33814
7.44947	4.35856
7.43879	4.37726
7.42813	4.35342
7.4175	4.25202
7.4069	4.37516
7.39634	4.47693
7.3858	4.40381
7.37529	4.45203
7.36482	4.49313
7.35437	4.44661
7.34396	4.38395
7.33357	4.46322
7.32321	4.44086
7.31288	4.39679
7.30258	4.44569
7.29231	4.37752
7.28207	4.34344
7.27185	4.48045
7.26167	4.50813
7.25152	4.53898
7.24139	4.58056
7.23129	4.50656
7.22122	4.39585
7.21117	4.40722
7.20116	4.52695
7.19117	4.54383
7.18121	4.53819
7.17128	4.4794
7.16137	4.40657
7.1515	4.3388
7.14164	4.39229
7.13182	4.55272
7.12203	4.58897
7.11225	4.62536
7.10251	4.50531
7.0928	4.50921
7.08311	4.61378
7.07344	4.53729
7.06381	4.4285
7.0542	4.40256
7.04461	4.43277
7.03506	4.44726
7.02552	4.46637
7.01601	4.46053
7.00653	4.47962
6.99708	4.51666
6.98765	4.4899
6.97824	4.45426
6.96886	4.44698
6.95951	4.47968
6.95018	4.52988
6.94087	4.53193
6.9316	4.4176
6.92234	4.36251
6.91311	4.35051
6.90391	4.43561
6.89473	4.45147
6.88557	4.41936
6.87644	4.41233
6.86733	4.47308
6.85824	4.46799
6.84918	4.4553
6.84015	4.38967
6.83114	4.34484
6.82215	4.31533
6.81319	4.22424
6.80424	4.2006
6.79532	4.2076
6.78643	4.26433
6.77756	4.23253
6.76871	4.10893
6.75989	4.05986
6.75109	3.98677
6.74231	3.99867
6.73355	4.05668
6.72482	4.06849
6.71611	4.0773
6.70742	4.04928
6.69875	3.98191
6.69011	3.96202
6.68149	4.04672
6.67289	4.03645
6.66431	3.99826
6.65576	4.04804
6.64722	4.12898
6.63871	4.26983
6.63022	4.29845
6.62175	4.20626
6.61331	4.22751
6.60488	4.31064
6.59648	4.34183
6.5881	4.36101
6.57974	4.32229
6.5714	4.34941
6.56308	4.47226
6.55478	4.57261
6.54651	4.58291
6.53825	4.51098
6.53001	4.50148
6.5218	4.55953
6.51361	4.60563
6.50544	4.63301
6.49729	4.62708
6.48915	4.64632
6.48104	4.66415
6.47295	4.61146
6.46488	4.59561
6.45683	4.67371
6.4488	4.73475
6.44079	4.75919
6.4328	4.77236
6.42482	4.77746
6.41687	4.72771
6.40894	4.67678
6.40103	4.59997
6.39314	4.64641
6.38526	4.68606
6.37741	4.65691
6.36957	4.657
6.36176	4.63152
6.35396	4.60405
6.34618	4.59985
6.33843	4.53262
6.33069	4.50189
6.32297	4.5066
6.31527	4.4951
6.30758	4.50671
6.29992	4.45326
6.29227	4.41609
6.28465	4.40633
6.27704	4.37767
6.26945	4.28524
6.26188	4.17708
6.25432	4.25727
6.24679	4.38911
6.23927	4.35189
6.23177	4.17591
6.22429	4.08702
6.21683	4.20973
6.20938	4.1956
6.20195	4.13015
6.19454	4.08694
6.18715	4.00602
6.17978	3.95695
6.17242	3.97007
6.16508	3.96572
6.15776	3.93902
6.15045	3.88856
6.14317	3.80311
6.1359	3.73208
6.12864	3.77373
6.12141	3.87093
6.11419	3.93289
6.10699	3.79132
6.0998	3.61609
6.09263	3.58774
6.08549	3.62282
6.07835	3.67804
6.07123	3.62685
6.06413	3.66271
6.05705	3.65827
6.04998	3.71475
6.04293	3.69105
6.0359	3.63245
6.02888	3.6487
6.02187	3.76498
6.01489	3.81517
6.00792	3.70764
6.00096	3.67864
5.99403	3.81149
5.98711	3.8172
5.9802	3.75839
5.97331	3.79147
5.96644	3.8226
5.95958	3.93365
5.95274	3.9804
5.94591	3.94242
5.9391	3.96637
5.9323	3.96908
5.92552	3.94614
5.91876	4.02547
5.91201	4.04366
5.90528	4.04341
5.89856	4.07167
5.89186	4.09088
5.88517	4.18262
5.8785	4.27039
5.87184	4.17284
5.8652	4.13513
5.85857	4.15352
5.85196	4.16863
5.84536	4.24959
5.83878	4.3194
5.83221	4.38499
5.82566	4.42098
5.81912	4.43334
5.81259	4.49893
5.80608	4.49448
5.79959	4.43537
5.79311	4.39058
5.78665	4.40447
5.78019	4.41411
5.77376	4.47408
5.76734	4.52853
5.76093	4.47582
5.75453	4.44503
5.74815	4.53135
5.74179	4.62343
5.73543	4.70158
5.7291	4.66962
5.72277	4.64129
5.71646	4.75588
5.71017	4.76153
5.70389	4.66104
5.69762	4.69833
5.69136	4.69264
5.68513	4.72333
5.6789	4.78603
5.67268	4.81233
5.66648	4.82777
5.6603	4.78842
5.65413	4.71321
5.64797	4.71869
5.64182	4.7854
5.63569	4.89751
5.62957	4.95749
5.62347	4.9617
5.61737	4.93029
5.61129	4.92127
5.60522	4.99096
5.59917	5.05719
5.59313	5.09815
5.5871	5.09156
5.58109	5.15339
5.57509	5.24649
5.5691	5.18235
5.56312	5.11587
5.55716	5.19585
5.55121	5.26224
5.54528	5.24787
5.53935	5.2429
5.53344	5.21527
5.52754	5.24359
5.52166	5.27915
5.51578	5.27307
5.50992	5.35819
5.50407	5.45777
5.49823	5.45149
5.49241	5.37156
5.4866	5.41041
5.4808	5.46807
5.47501	5.50557
5.46923	5.45041
5.46347	5.37238
5.45772	5.4354
5.45198	5.50916
5.44625	5.55302
5.44054	5.55848
5.43484	5.59922
5.42914	5.64714
5.42347	5.60154
5.4178	5.60367
5.41214	5.64444
5.4065	5.6101
5.40087	5.61464
5.39525	5.64118
5.38964	5.66886
5.38404	5.70257
5.37846	5.71623
5.37288	5.74567
5.36732	5.7581
5.36177	5.77381
5.35623	5.81908
5.35071	5.84726
5.34519	5.82808
5.33968	5.85617
5.33419	5.87486
5.32871	5.87152
5.32324	5.90577
5.31778	5.87362
5.31233	5.77848
5.30689	5.87011
5.30147	5.92982
5.29605	5.88812
5.29065	5.93379
5.28525	5.9631
5.27987	5.95836
5.2745	5.94317
5.26914	5.94474
5.26379	5.96583
5.25845	5.96352
5.25312	5.96775
5.24781	6.0262
5.2425	6.09795
5.23721	6.1041
5.23192	6.07975
5.22665	6.10287
5.22138	6.13486
5.21613	6.15998
5.21089	6.10494
5.20566	6.09808
5.20044	6.18216
5.19522	6.11862
5.19002	6.02017
5.18483	6.17837
5.17965	6.24697
5.17448	6.22453
5.16933	6.22243
5.16418	6.21521
5.15904	6.22812
5.15391	6.18413
5.14879	6.13118
5.14368	6.13393
5.13859	6.18501
5.1335	6.22073
5.12842	6.19834
5.12335	6.14446
5.1183	6.08362
5.11325	6.10218
5.10821	6.19838
5.10318	6.24292
5.09817	6.22096
5.09316	6.19359
5.08816	6.2422
5.08317	6.2245
5.07819	6.17745
5.07322	6.20269
5.06826	6.20731
5.06331	6.19425
5.05837	6.15459
5.05344	6.1941
5.04852	6.19274
5.04361	6.13229
5.03871	6.09643
5.03382	6.13252
5.02894	6.11123
5.02406	6.12611
5.0192	6.19267
5.01435	6.13126
5.0095	6.05107
5.00467	6.0148
4.99984	5.94532
4.99502	5.98306
4.99021	6.08213
4.98542	6.14834
4.98063	6.16238
4.97585	6.15742
4.97108	6.11294
4.96632	6.09335
4.96156	6.03943
4.95682	6.01658
4.95209	6.04779
4.94736	6.08836
4.94264	6.03415
4.93794	5.96416
4.93324	5.97212
4.92855	5.96903
4.92387	6.00139
4.9192	5.92371
4.91453	5.91395
4.90988	6.03403
4.90524	5.96189
4.9006	5.90239
4.89597	5.91688
4.89135	5.94208
4.88674	5.9795
4.88214	5.95924
4.87755	5.95252
4.87296	5.95791
4.86839	5.90254
4.86382	5.79127
4.85926	5.80251
4.85471	5.84884
4.85017	5.8361
4.84564	5.84757
4.84111	5.95627
4.8366	5.98224
4.83209	5.89386
4.82759	5.86361
4.8231	5.88577
4.81862	5.85909
4.81415	5.81186
4.80968	5.838
4.80522	5.80601
4.80077	5.83931
4.79633	5.90461
4.7919	5.87971
4.78747	5.87551
4.78306	5.8222
4.77865	5.82094
4.77425	5.85285
4.76986	5.85126
4.76547	5.87115
4.7611	5.86639
4.75673	5.85733
4.75237	5.86078
4.74802	5.85087
4.74367	5.85691
4.73934	5.82873
4.73501	5.85172
4.73069	5.84368
4.72638	5.78126
4.72207	5.74871
4.71777	5.81005
4.71348	5.86707
4.7092	5.86539
4.70493	5.84971
4.70066	5.77726
4.69641	5.74393
4.69216	5.74637
4.68791	5.7397
4.68368	5.74983
4.67945	5.8057
4.67523	5.81244
4.67102	5.8029
4.66682	5.76849
4.66262	5.7173
4.65843	5.78096
4.65425	5.81778
4.65007	5.78112
4.64591	5.73203
4.64175	5.66443
4.6376	5.5981
4.63345	5.5806
4.62932	5.64175
4.62519	5.70139
4.62106	5.69681
4.61695	5.67633
4.61284	5.67656
4.60874	5.61424
4.60465	5.60906
4.60056	5.62724
4.59648	5.61976
4.59241	5.62321
4.58835	5.6243
4.58429	5.6249
4.58024	5.65616
4.5762	5.66906
4.57216	5.55182
4.56814	5.50327
4.56411	5.53498
4.5601	5.57745
4.55609	5.58807
4.55209	5.59053
4.5481	5.59836
4.54411	5.59218
4.54013	5.62474
4.53616	5.6606
4.5322	5.64294
4.52824	5.63093
4.52429	5.64187
4.52034	5.67338
4.51641	5.66824
4.51247	5.59908
4.50855	5.52409
4.50463	5.56173
4.50072	5.57753
4.49682	5.56075
4.49292	5.59667
4.48903	5.59771
4.48515	5.5634
4.48127	5.57331
4.4774	5.63668
4.47354	5.69267
4.46968	5.67357
4.46584	5.67752
4.46199	5.69753
4.45815	5.68025
4.45432	5.64942
4.4505	5.68749
4.44668	5.72088
4.44287	5.6427
4.43907	5.64785
4.43527	5.64925
4.43148	5.63775
4.4277	5.66521
4.42392	5.76834
4.42015	5.81753
4.41638	5.75237
4.41262	5.71838
4.40887	5.76141
4.40513	5.76265
4.40139	5.74125
4.39765	5.75293
4.39393	5.78054
4.39021	5.79189
4.38649	5.77349
4.38278	5.76091
4.37908	5.73136
4.37539	5.75796
4.3717	5.74489
4.36801	5.74927
4.36434	5.78796
4.36067	5.81064
4.357	5.84915
4.35335	5.93472
4.34969	5.89829
4.34605	5.788
4.34241	5.78836
4.33877	5.82598
4.33514	5.79114
4.33152	5.75184
4.32791	5.76606
4.3243	5.81621
4.32069	5.80779
4.3171	5.80559
4.31351	5.81426
4.30992	5.74504
4.30634	5.69579
4.30277	5.73569
4.2992	5.78047
4.29564	5.79519
4.29208	5.7794
4.28853	5.82373
4.28499	5.86305
4.28145	5.84477
4.27792	5.83325
4.27439	5.78821
4.27087	5.67955
4.26735	5.75185
4.26384	5.86399
4.26034	5.87716
4.25684	5.92948
4.25335	5.97315
4.24986	5.87463
4.24638	5.83484
4.24291	5.80346
4.23944	5.78523
4.23598	5.86269
4.23252	5.87738
4.22906	5.90252
4.22562	5.84625
4.22218	5.80813
4.21874	5.84058
4.21531	5.94053
4.21189	5.95911
4.20847	5.85975
4.20506	5.78081
4.20165	5.87234
4.19825	5.92689
4.19485	5.92694
4.19146	5.88745
4.18807	5.86251
4.18469	5.81181
4.18132	5.81846
4.17795	5.81946
4.17458	5.80401
4.17123	5.8317
4.16787	5.84622
4.16453	5.88431
4.16118	5.94185
4.15785	5.9278
4.15451	5.85849
4.15119	5.79359
4.14787	5.82572
4.14455	5.82749
4.14124	5.80692
4.13794	5.79145
4.13464	5.74545
4.13134	5.76278
4.12805	5.82629
4.12477	5.80808
4.12149	5.7672
4.11822	5.80229
4.11495	5.88265
4.11168	5.84255
4.10843	5.77568
4.10517	5.77954
4.10192	5.75009
4.09868	5.71387
4.09545	5.81753
4.09221	5.93835
4.08899	5.97262
4.08576	5.8835
4.08255	5.76039
4.07933	5.74693
4.07613	5.75825
4.07292	5.8798
4.06973	5.89789
4.06654	5.85013
4.06335	5.84176
4.06017	5.94673
4.05699	6.10031
4.05382	6.05925
4.05065	5.89546
4.04749	5.79297
4.04433	5.80189
4.04118	5.84014
4.03803	5.79216
4.03489	5.72863
4.03175	5.75168
4.02862	5.82435
4.02549	5.83585
4.02237	5.77849
4.01925	5.74734
4.01614	5.80709
4.01303	5.81785
4.00993	5.7621
4.00683	5.72215
4.00373	5.8798
4.00064	5.89436
3.99756	5.77959
3.99448	5.80119
3.9914	5.80826
3.98833	5.66466
3.98527	5.66671
3.98221	5.7703
3.97915	5.81082
3.9761	5.85237
3.97305	5.90615
3.97001	5.88586
3.96697	5.79154
3.96394	5.72609
3.96091	5.73514
3.95789	5.75552
3.95487	5.76931
3.95186	5.72115
3.94885	5.72157
3.94584	5.75019
3.94284	5.6842
3.93984	5.73918
3.93685	5.79068
3.93386	5.69566
3.93088	5.65068
3.9279	5.69439
3.92493	5.72103
3.92196	5.77293
3.919	5.79733
3.91604	5.71794
3.91308	5.68676
3.91013	5.65892
3.90718	5.61098
3.90424	5.65083
3.9013	5.6576
3.89837	5.6521
3.89544	5.76314
3.89252	5.77074
3.8896	5.68304
3.88668	5.71165
3.88377	5.79585
3.88086	5.81789
3.87796	5.79107
3.87506	5.77397
3.87217	5.66565
3.86928	5.6298
3.86639	5.62557
3.86351	5.57824
3.86064	5.57213
3.85776	5.64363
3.8549	5.72964
3.85203	5.70898
3.84917	5.69028
3.84631	5.71069
3.84346	5.63169
3.84062	5.59282
3.83777	5.67262
3.83494	5.67347
3.8321	5.68248
3.82927	5.73579
3.82644	5.69998
3.82362	5.66991
3.82081	5.6483
3.81799	5.60743
3.81518	5.61277
3.81238	5.56555
3.80958	5.55138
3.80678	5.58648
3.80399	5.57165
3.8012	5.54343
3.79841	5.50985
3.79563	5.51264
3.79286	5.55328
3.79008	5.56766
3.78731	5.55816
3.78455	5.56632
3.78179	5.53652
3.77903	5.5105
3.77628	5.51773
3.77353	5.55121
3.77079	5.55499
3.76805	5.53047
3.76531	5.52582
3.76258	5.51704
3.75985	5.49267
3.75713	5.47483
3.7544	5.48942
3.75169	5.48877
3.74898	5.53731
3.74627	5.52548
3.74356	5.48376
3.74086	5.49206
3.73816	5.51851
3.73547	5.5218
3.73278	5.48351
3.7301	5.40506
3.72741	5.34222
3.72474	5.30482
3.72206	5.23793
3.71939	5.25629
3.71673	5.31003
3.71406	5.35843
3.71141	5.38927
3.70875	5.37107
3.7061	5.3798
3.70345	5.37078
3.70081	5.28905
3.69817	5.27006
3.69553	5.34481
3.6929	5.31135
3.69027	5.24699
3.68765	5.25638
3.68503	5.27127
3.68241	5.29059
3.6798	5.30864
3.67719	5.23091
3.67458	5.1764
3.67198	5.14542
3.66938	5.19494
3.66678	5.17419
3.66419	5.16164
3.66161	5.26241
3.65902	5.21612
3.65644	5.1568
3.65387	5.21818
3.65129	5.28185
3.64872	5.30396
3.64616	5.21477
3.64359	5.1425
3.64103	5.13793
3.63848	5.09423
3.63593	4.98214
3.63338	5.05471
3.63084	5.12882
3.6283	5.11489
3.62576	5.09125
3.62322	5.04361
3.62069	5.08961
3.61817	5.17615
3.61564	5.13584
3.61312	5.115
3.61061	5.05291
3.6081	4.98227
3.60559	4.97783
3.60308	5.04675
3.60058	5.12807
3.59808	5.07054
3.59558	5.0354
3.59309	4.99169
3.59061	4.95736
3.58812	4.96437
3.58564	4.90721
3.58316	4.86014
3.58069	4.88643
3.57822	4.94198
3.57575	4.9666
3.57328	4.88273
3.57082	4.84594
3.56836	4.81115
3.56591	4.82239
3.56346	4.92381
3.56101	4.96951
3.55857	4.92237
3.55613	4.92736
3.55369	4.8645
3.55126	4.8488
3.54883	4.90439
3.5464	4.9137
3.54397	4.85403
3.54155	4.84436
3.53914	4.89092
3.53672	4.87553
3.53431	4.75579
3.5319	4.75282
3.5295	4.86957
3.5271	4.85397
3.5247	4.80053
3.52231	4.73986
3.51991	4.7444
3.51753	4.76633
3.51514	4.67485
3.51276	4.56945
3.51038	4.6005
3.50801	4.65743
3.50563	4.66903
3.50327	4.67915
3.5009	4.7033
3.49854	4.71472
3.49618	4.78445
3.49382	4.76913
3.49147	4.62709
3.48912	4.5894
3.48677	4.63765
3.48443	4.67801
3.48209	4.68136
3.47975	4.5625
3.47742	4.52652
3.47509	4.6221
3.47276	4.69913
3.47044	4.61722
3.46812	4.66278
3.4658	4.53396
3.46348	4.43266
3.46117	4.55308
3.45886	4.63353
3.45656	4.65699
3.45425	4.60661
3.45195	4.57754
3.44966	4.52047
3.44736	4.39287
3.44507	4.34106
3.44279	4.37415
3.4405	4.49102
3.43822	4.53924
3.43594	4.44058
3.43367	4.37999
3.43139	4.44101
3.42912	4.40651
3.42686	4.31629
3.42459	4.34901
3.42233	4.38582
3.42007	4.39944
3.41782	4.42772
3.41557	4.48121
3.41332	4.41778
3.41108	4.37108
3.40883	4.40982
3.40659	4.41279
3.40435	4.35557
3.40212	4.30931
3.39989	4.22107
3.39766	4.21906
3.39544	4.18084
3.39322	4.19039
3.391	4.26547
3.38878	4.34032
3.38657	4.30485
3.38436	4.20858
3.38215	4.14599
3.37994	4.25134
3.37774	4.31799
3.37554	4.23288
3.37335	4.12664
3.37115	4.1793
3.36896	4.27182
3.36678	4.24739
3.36459	4.10897
3.36241	4.06623
3.36023	4.16012
3.35805	4.11513
3.35588	4.01968
3.35371	4.02438
3.35154	4.05889
3.34938	4.11804
3.34721	4.04508
3.34505	4.03401
3.3429	4.0442
3.34074	4.00871
3.33859	3.95473
3.33644	3.93217
3.3343	3.95396
3.33215	3.988
3.33001	3.9574
3.32788	3.89104
3.32574	3.8776
3.32361	3.91256
3.32148	3.87036
3.31936	3.92694
3.31723	3.90895
3.31511	3.81149
3.31299	3.84317
3.31088	3.84803
3.30876	3.79597
3.30665	3.74386
3.30455	3.80618
3.30244	3.77067
3.30034	3.79746
3.29824	3.83133
3.29614	3.82856
3.29405	3.82685
3.29196	3.77962
3.28987	3.77246
3.28778	3.75097
3.2857	3.69558
3.28362	3.63071
3.28154	3.72058
3.27946	3.86909
3.27739	3.86253
3.27532	3.7964
3.27325	3.68193
3.27119	3.65684
3.26913	3.68931
3.26707	3.55125
3.26501	3.43971
3.26295	3.51178
3.2609	3.56576
3.25885	3.53953
3.2568	3.58411
3.25476	3.71483
3.25272	3.64599
3.25068	3.53166
3.24864	3.52981
3.24661	3.5689
3.24458	3.61388
3.24255	3.59799
3.24052	3.52119
3.2385	3.43822
3.23648	3.36879
3.23446	3.42116
3.23244	3.42405
3.23043	3.32295
3.22841	3.33594
3.2264	3.37173
3.2244	3.43999
3.22239	3.59531
3.22039	3.62012
3.21839	3.52415
3.2164	3.54762
3.2144	3.47208
3.21241	3.4726
3.21042	3.50356
3.20844	3.30395
3.20645	3.23622
3.20447	3.29455
3.20249	3.26342
3.20051	3.22439
3.19854	3.32437
3.19657	3.30799
3.1946	3.3796
3.19263	3.4772
3.19067	3.4037
3.1887	3.26441
3.18674	3.20428
3.18479	3.33311
3.18283	3.3572
3.18088	3.34974
3.17893	3.26819
3.17698	3.20166
3.17504	3.24104
3.17309	3.27899
3.17115	3.29949
3.16921	3.37115
3.16728	3.33829
3.16534	3.20517
3.16341	3.1903
3.16148	3.16717
3.15956	3.16598
3.15763	3.18513
3.15571	3.16885
3.15379	3.19826
3.15187	3.20291
3.14996	3.10668
3.14805	3.10435
3.14614	3.25451
3.14423	3.18648
3.14232	3.10371
3.14042	3.17176
3.13852	3.21672
3.13662	3.12212
3.13472	2.99819
3.13283	3.05496
3.13094	3.18483
3.12905	3.12019
3.12716	3.0613
3.12528	3.07154
3.12339	3.01838
3.12151	3.00049
3.11964	3.09047
3.11776	2.99111
3.11589	2.81689
3.11401	2.90916
3.11214	2.93192
3.11028	2.82779
3.10841	2.80358
3.10655	2.93997
3.10469	2.9781
3.10283	2.92946
3.10098	2.87768
3.09912	2.88123
3.09727	2.88177
3.09542	2.84963
3.09358	2.9045
3.09173	2.75924
3.08989	2.66243
3.08805	2.71546
3.08621	2.62472
3.08437	2.75523
3.08254	2.81611
3.08071	2.70314
3.07888	2.76913
3.07705	2.90553
3.07523	2.92754
3.0734	2.83406
3.07158	2.88416
3.06977	2.83757
3.06795	2.70104
3.06613	2.65302
3.06432	2.58845
3.06251	2.63749
3.0607	2.70407
3.0589	2.73302
3.0571	2.77928
3.05529	2.75006
3.05349	2.77156
3.0517	2.74229
3.0499	2.67152
3.04811	2.77997
3.04632	2.88689
3.04453	2.77239
3.04274	2.77062
3.04096	2.87646
3.03918	2.83812
3.0374	2.79785
3.03562	2.77412
3.03384	2.72347
3.03207	2.65006
3.03029	2.6304
3.02852	2.78286
3.02676	2.97086
3.02499	2.99911
3.02323	2.96283
3.02146	2.84192
3.0197	2.7821
3.01795	2.74609
3.01619	2.80897
3.01444	2.83345
3.01269	2.79199
3.01094	2.8109
3.00919	2.81892
3.00744	2.86011
3.0057	2.89257
3.00396	2.90363
3.00222	2.92457
3.00048	2.87498
2.99875	2.79893
2.99701	2.81041
2.99528	2.88742
2.99355	2.88111
2.99183	2.74706
2.9901	2.75116
2.98838	2.89036
2.98666	2.92869
2.98494	2.8066
2.98322	2.79325
2.9815	2.77606
2.97979	2.70598
2.97808	2.67414
2.97637	2.79914
2.97466	2.98742
2.97295	2.97878
2.97125	2.81315
2.96955	2.75209
2.96785	2.66023
2.96615	2.62993
2.96446	2.74454
2.96276	2.82736
2.96107	2.798
2.95938	2.83001
2.95769	2.81453
2.95601	2.78551
2.95432	2.78641
2.95264	2.78416
2.95096	2.72804
2.94928	2.72955
2.9476	2.84505
2.94593	2.96675
2.94425	2.89518
2.94258	2.86629
2.94092	2.86433
2.93925	2.79828
2.93758	2.79245
2.93592	2.898
2.93426	2.98444
2.9326	3.04693
2.93094	3.12402
2.92928	3.20135
2.92763	3.14219
2.92598	2.97303
2.92433	2.94831
2.92268	2.93227
2.92103	2.94742
2.91939	2.96156
2.91775	2.90005
2.9161	2.97657
2.91447	3.15951
2.91283	3.21837
2.91119	3.13037
2.90956	3.07489
2.90793	3.17504
2.9063	3.03692
2.90467	3.04287
2.90304	3.07105
2.90142	3.12028
2.89979	3.26785
2.89817	3.37218
2.89656	3.28404
2.89494	3.17412
2.89332	3.27018
2.89171	3.48076
2.8901	3.47462
2.88849	3.47076
2.88688	3.54693
2.88527	3.52233
2.88367	3.58063
2.88206	3.6753
2.88046	3.66909
2.87886	3.64824
2.87727	3.56424
2.87567	3.60036
2.87408	3.81438
2.87248	3.89195
2.87089	3.79063
2.8693	3.78445
2.86772	3.87324
2.86613	3.92235
2.86455	3.95332
2.86297	3.9439
2.86139	3.99302
2.85981	4.0287
2.85823	3.96986
2.85666	3.98704
2.85508	4.16973
2.85351	4.3212
2.85194	4.2955
2.85038	4.29098
2.84881	4.29287
2.84724	4.30289
2.84568	4.51631
2.84412	4.67016
2.84256	4.57283
2.841	4.44598
2.83945	4.58055
2.83789	4.5781
2.83634	4.47899
2.83479	4.4703
2.83324	4.65792
2.83169	4.83825
2.83015	4.87706
2.82861	4.8173
2.82706	4.76121
2.82552	4.77784
2.82398	4.86479
2.82245	4.89693
2.82091	4.94536
2.81938	5.05741
2.81784	5.09759
2.81631	5.04844
2.81479	5.14513
2.81326	5.35367
2.81173	5.2377
2.81021	5.20456
2.80869	5.34388
2.80716	5.47739
2.80565	5.56689
2.80413	5.56014
2.80261	5.4923
2.8011	5.32733
2.79959	5.3971
2.79808	5.69212
2.79657	5.72772
2.79506	5.7058
2.79355	5.82633
2.79205	5.78641
2.79055	5.76285
2.78904	5.87109
2.78754	6.00795
2.78605	5.98068
2.78455	5.99537
2.78306	6.06993
2.78156	6.219
2.78007	6.28533
2.77858	6.36094
2.77709	6.27607
2.77561	6.26646
2.77412	6.60771
2.77264	6.84903
2.77116	6.76673
2.76968	6.58392
2.7682	6.53755
2.76672	6.71001
2.76524	6.90852
2.76377	6.98558
2.7623	7.03737
2.76083	7.10043
2.75936	7.07037
2.75789	7.0122
2.75642	7.07036
2.75496	7.34558
2.7535	7.35587
2.75203	7.28338
2.75057	7.3237
2.74912	7.39743
2.74766	7.48226
2.7462	7.54011
2.74475	7.39605
2.7433	7.42068
2.74185	7.66548
2.7404	7.81115
2.73895	7.78322
2.7375	7.80068
2.73606	7.98958
2.73462	8.13687
2.73318	8.1495
2.73174	8.04391
2.7303	8.03827
2.72886	8.15672
2.72742	8.23184
2.72599	8.29374
2.72456	8.43474
2.72313	8.52446
2.7217	8.46915
2.72027	8.43892
2.71884	8.45327
2.71742	8.48049
2.71599	8.55991
2.71457	8.58453
2.71315	8.60075
2.71173	8.75805
2.71032	9.02111
2.7089	9.11043
2.70748	8.98914
2.70607	9.03092
2.70466	9.10899
2.70325	8.97715
2.70184	8.84269
2.70043	8.94075
2.69903	9.0255
2.69762	9.15123
2.69622	9.30661
2.69482	9.19917
2.69342	9.17323
2.69202	9.2871
2.69062	9.32582
2.68923	9.27265
2.68783	9.25715
2.68644	9.38014
2.68505	9.56701
2.68366	9.54629
2.68227	9.35776
2.68089	9.36474
2.6795	9.52207
2.67812	9.59642
2.67673	9.501
2.67535	9.40367
2.67397	9.38901
2.6726	9.50272
2.67122	9.64385
2.66984	9.71531
2.66847	9.67013
2.6671	9.66103
2.66572	9.59665
2.66435	9.59713
2.66299	9.60414
2.66162	9.58512
2.66025	9.52506
2.65889	9.56854
2.65753	9.74549
2.65616	9.71693
2.65481	9.50156
2.65345	9.56052
2.65209	9.71529
2.65073	9.78492
2.64938	9.70099
2.64803	9.50556
2.64667	9.5939
2.64532	9.76622
2.64397	9.73552
2.64263	9.76986
2.64128	9.76453
2.63994	9.77055
2.63859	9.75819
2.63725	9.6292
2.63591	9.63103
2.63457	9.83266
2.63323	9.81462
2.6319	9.74755
2.63056	9.81787
2.62923	9.8065
2.62789	9.7177
2.62656	9.522
2.62523	9.54649
2.6239	9.83854
2.62258	9.89483
2.62125	9.77839
2.61993	9.76549
2.6186	9.78562
2.61728	9.7933
2.61596	9.87347
2.61464	9.9181
2.61332	9.84526
2.61201	9.90609
2.61069	9.94682
2.60938	9.74185
2.60807	9.71954
2.60675	9.84693
2.60544	9.8624
2.60414	9.80409
2.60283	9.7726
2.60152	9.74112
2.60022	9.81879
2.59891	9.88309
2.59761	9.86675
2.59631	9.9127
2.59501	9.95908
2.59371	9.81104
2.59242	9.78566
2.59112	9.79673
2.58983	9.89965
2.58853	9.95258
2.58724	9.92024
2.58595	9.8465
2.58466	9.76304
2.58338	9.85158
2.58209	10.0394
2.5808	9.9783
2.57952	9.87518
2.57824	9.83518
2.57695	9.83579
2.57567	9.93967
2.5744	9.98397
2.57312	9.88815
2.57184	9.74631
2.57057	9.78746
2.56929	9.84367
2.56802	9.77079
2.56675	9.82995
2.56548	10.0253
2.56421	10.1379
2.56294	10.0126
2.56168	9.91205
2.56041	9.99791
2.55915	10.0168
2.55789	9.89994
2.55662	9.89914
2.55536	9.98669
2.5541	10.0367
2.55285	10.076
2.55159	10.0483
2.55034	9.96012
2.54908	9.97471
2.54783	10.0828
2.54658	10.1103
2.54533	10.1259
2.54408	10.1727
2.54283	10.0778
2.54159	9.96028
2.54034	9.91274
2.5391	9.92925
2.53785	9.99101
2.53661	10.1962
2.53537	10.2724
2.53413	10.2107
2.53289	10.1808
2.53166	10.1999
2.53042	10.2077
2.52919	10.0682
2.52795	9.89913
2.52672	9.98793
2.52549	10.2208
2.52426	10.272
2.52303	10.1962
2.52181	10.1324
2.52058	10.1895
2.51936	10.1613
2.51813	10.1201
2.51691	10.2131
2.51569	10.3806
2.51447	10.4324
2.51325	10.3509
2.51203	10.3639
2.51082	10.3065
2.5096	10.1553
2.50839	10.2806
2.50717	10.4238
2.50596	10.3877
2.50475	10.4211
2.50354	10.4145
2.50233	10.3022
2.50113	10.2931
2.49992	10.4123
2.49872	10.4533
2.49751	10.326
2.49631	10.3187
2.49511	10.3982
2.49391	10.3573
2.49271	10.3496
2.49151	10.4706
2.49031	10.5589
2.48912	10.4629
2.48792	10.5087
2.48673	10.546
2.48554	10.5394
2.48435	10.5773
2.48316	10.5261
2.48197	10.4412
2.48078	10.5288
2.4796	10.709
2.47841	10.6349
2.47723	10.4759
2.47604	10.4924
2.47486	10.6492
2.47368	10.71
2.4725	10.5989
2.47132	10.4361
2.47014	10.4122
2.46897	10.6004
2.46779	10.6767
2.46662	10.6816
2.46545	10.7369
2.46427	10.6988
2.4631	10.4694
2.46193	10.4018
2.46077	10.6363
2.4596	10.6975
2.45843	10.6667
2.45727	10.6673
2.4561	10.6351
2.45494	10.5659
2.45378	10.7183
2.45262	10.817
2.45146	10.6769
2.4503	10.7136
2.44914	10.7644
2.44799	10.5948
2.44683	10.6409
2.44568	10.8512
2.44452	10.8309
2.44337	10.7741
2.44222	10.7248
2.44107	10.6299
2.43992	10.7132
2.43877	10.8234
2.43763	10.9478
2.43648	10.9751
2.43534	10.8336
2.43419	10.779
2.43305	10.7397
2.43191	10.8414
2.43077	10.9285
2.42963	10.7452
2.42849	10.6658
2.42736	10.8088
2.42622	10.9123
2.42509	10.9108
2.42395	10.8726
2.42282	10.9208
2.42169	10.792
2.42056	10.6576
2.41943	10.7978
2.4183	10.8845
2.41717	10.9249
2.41605	11.0926
2.41492	11.1194
2.4138	10.9964
2.41267	10.8705
2.41155	10.8448
2.41043	10.9377
2.40931	11.026
2.40819	11.0505
2.40707	10.993
2.40595	11.0873
2.40484	11.0676
2.40372	11.0875
2.40261	11.0751
2.4015	10.9587
2.40039	10.912
2.39928	10.9254
2.39817	10.9398
2.39706	10.8865
2.39595	11.0314
2.39484	11.1275
2.39374	11.163
2.39263	11.0188
2.39153	10.9935
2.39043	11.1063
2.38932	11.1709
2.38822	11.13
2.38712	11.0999
2.38603	11.0381
2.38493	10.9887
2.38383	11.1739
2.38274	11.2526
2.38164	11.2041
2.38055	11.2112
2.37946	11.1498
2.37836	11.2033
2.37727	11.2826
2.37618	11.233
2.3751	11.3336
2.37401	11.3092
2.37292	11.2525
2.37184	11.2999
2.37075	11.4196
2.36967	11.3715
2.36859	11.2692
2.3675	11.3896
2.36642	11.4004
2.36534	11.4201
2.36427	11.4013
2.36319	11.4561
2.36211	11.44
2.36104	11.254
2.35996	11.219
2.35889	11.4821
2.35781	11.525
2.35674	11.4177
2.35567	11.3537
2.3546	11.4098
2.35353	11.6062
2.35247	11.5707
2.3514	11.4219
2.35033	11.5327
2.34927	11.6797
2.3482	11.6357
2.34714	11.4923
2.34608	11.3794
2.34502	11.4018
2.34396	11.4902
2.3429	11.5262
2.34184	11.5145
2.34078	11.5382
2.33973	11.5884
2.33867	11.5555
2.33762	11.5386
2.33656	11.6904
2.33551	11.6904
2.33446	11.5559
2.33341	11.5898
2.33236	11.5777
2.33131	11.4451
2.33026	11.4925
2.32922	11.6058
2.32817	11.6706
2.32712	11.6848
2.32608	11.6448
2.32504	11.6109
2.324	11.5887
2.32295	11.7053
2.32191	11.7262
2.32087	11.7246
2.31984	11.635
2.3188	11.538
2.31776	11.6749
2.31673	11.7779
2.31569	11.751
2.31466	11.7209
2.31362	11.7695
2.31259	11.7784
2.31156	11.6907
2.31053	11.6433
2.3095	11.8224
2.30847	11.8497
2.30745	11.6049
2.30642	11.6406
2.3054	11.738
2.30437	11.6355
2.30335	11.6245
2.30232	11.7142
2.3013	11.7992
2.30028	11.7846
2.29926	11.7286
2.29824	11.8045
2.29722	11.8958
2.29621	11.6705
2.29519	11.4193
2.29417	11.6378
2.29316	11.8799
2.29215	11.8734
2.29113	11.8325
2.29012	11.7933
2.28911	11.7501
2.2881	11.7606
2.28709	11.7052
2.28608	11.6693
2.28507	11.6851
2.28407	11.7098
2.28306	11.8192
2.28206	11.7823
2.28105	11.5793
2.28005	11.4251
2.27905	11.5188
2.27805	11.8295
2.27705	12.0279
2.27605	11.8487
2.27505	11.6821
2.27405	11.7961
2.27305	11.8855
2.27206	11.7458
2.27106	11.7158
2.27007	11.6705
2.26907	11.7132
2.26808	11.7346
2.26709	11.7677
2.2661	11.7885
2.26511	11.81
2.26412	11.6706
2.26313	11.6032
2.26214	11.6664
2.26116	11.7623
2.26017	11.7357
2.25919	11.6544
2.2582	11.6651
2.25722	11.626
2.25624	11.4945
2.25526	11.6026
2.25428	11.7326
2.2533	11.7103
2.25232	11.7341
2.25134	11.6616
2.25036	11.5566
2.24939	11.5391
2.24841	11.5436
2.24744	11.703
2.24646	11.8098
2.24549	11.7291
2.24452	11.6581
2.24355	11.6595
2.24257	11.6835
2.24161	11.7172
2.24064	11.5682
2.23967	11.4524
2.2387	11.5388
2.23774	11.7233
2.23677	11.7105
2.23581	11.5687
2.23484	11.6027
2.23388	11.6777
2.23292	11.6275
2.23196	11.6148
2.231	11.5999
2.23004	11.6182
2.22908	11.5576
2.22812	11.5968
2.22716	11.6695
2.22621	11.7968
2.22525	11.8322
2.2243	11.7617
2.22334	11.4884
2.22239	11.3406
2.22144	11.405
2.22049	11.5028
2.21953	11.5627
2.21859	11.6815
2.21764	11.6094
2.21669	11.618
2.21574	11.7281
2.21479	11.8149
2.21385	11.7823
2.2129	11.6886
2.21196	11.5965
2.21102	11.4085
2.21007	11.4131
2.20913	11.729
2.20819	11.852
2.20725	11.8074
2.20631	11.6388
2.20537	11.4218
2.20444	11.5888
2.2035	11.6633
2.20256	11.4407
2.20163	11.4029
2.20069	11.6179
2.19976	11.6573
2.19883	11.3461
2.19789	11.3762
2.19696	11.6799
2.19603	11.7563
2.1951	11.5048
2.19417	11.366
2.19325	11.4827
2.19232	11.6035
2.19139	11.542
2.19047	11.4752
2.18954	11.4245
2.18862	11.367
2.18769	11.5438
2.18677	11.6188
2.18585	11.6827
2.18493	11.5841
2.18401	11.456
2.18309	11.5838
2.18217	11.5906
2.18125	11.6114
2.18033	11.6101
2.17942	11.7948
2.1785	11.7187
2.17759	11.4022
2.17667	11.5359
2.17576	11.5959
2.17485	11.4486
2.17393	11.4279
2.17302	11.4835
2.17211	11.3862
2.1712	11.3697
2.17029	11.6496
2.16939	11.7244
2.16848	11.6379
2.16757	11.6564
2.16667	11.7231
2.16576	11.5119
2.16486	11.2825
2.16395	11.4589
2.16305	11.7301
2.16215	11.582
2.16125	11.5291
2.16035	11.6112
2.15945	11.4936
2.15855	11.4122
2.15765	11.538
2.15675	11.4146
2.15586	11.3108
2.15496	11.4285
2.15406	11.5071
2.15317	11.5234
2.15228	11.4523
2.15138	11.4559
2.15049	11.4612
2.1496	11.4305
2.14871	11.4026
2.14782	11.4966
2.14693	11.5723
2.14604	11.4378
2.14515	11.3854
2.14427	11.3149
2.14338	11.5484
2.14249	11.6757
2.14161	11.4405
2.14072	11.428
2.13984	11.4237
2.13896	11.3907
2.13808	11.5077
2.13719	11.4045
2.13631	11.1697
2.13543	11.3564
2.13455	11.3765
2.13368	11.309
2.1328	11.3228
2.13192	11.4364
2.13105	11.6054
2.13017	11.5845
2.1293	11.5155
2.12842	11.5256
2.12755	11.3459
2.12668	11.1686
2.1258	11.0837
2.12493	11.0808
2.12406	11.1505
2.12319	11.2589
2.12232	11.3175
2.12145	11.16
2.12059	11.0821
2.11972	11.1855
2.11885	11.2898
2.11799	11.3183
2.11712	11.2206
2.11626	11.215
2.1154	11.1625
2.11453	11.3496
2.11367	11.3296
2.11281	11.2834
2.11195	11.2027
2.11109	11.1794
2.11023	11.2897
2.10937	11.3041
2.10851	11.2856
2.10766	11.4028
2.1068	11.3215
2.10594	11.226
2.10509	11.2572
2.10423	11.3982
2.10338	11.5184
2.10253	11.5079
2.10168	11.4689
2.10082	11.3873
2.09997	11.1913
2.09912	11.0898
2.09827	11.1436
2.09742	11.4359
2.09658	11.2862
2.09573	11.0514
2.09488	11.1257
2.09404	11.1746
2.09319	11.1915
2.09235	11.1323
2.0915	11.2412
2.09066	11.3483
2.08982	11.3347
2.08897	11.1608
2.08813	11.2025
2.08729	11.2925
2.08645	11.0904
2.08561	10.9423
2.08477	11.2729
2.08394	11.5685
2.0831	11.1721
2.08226	10.9748
2.08143	11.0734
2.08059	10.9114
2.07976	11.0794
2.07892	11.268
2.07809	11.0879
2.07726	11.0016
2.07643	11.3258
2.07559	11.8088
2.07476	11.4627
2.07393	10.9893
2.0731	10.8255
2.07228	10.9581
2.07145	11.3818
2.07062	11.5427
2.06979	11.299
2.06897	11.2934
2.06814	11.2783
2.06732	11.3061
2.06649	11.2988
2.06567	11.0744
2.06485	11.1636
2.06403	11.201
2.0632	11.129
2.06238	11.1786
2.06156	10.9396
2.06074	10.8492
2.05993	10.9723
2.05911	10.9928
2.05829	11.1207
2.05747	11.0697
2.05666	11.1125
2.05584	11.159
2.05503	11.2251
2.05421	11.3535
2.0534	11.2623
2.05259	11.0642
2.05177	10.9898
2.05096	11.0279
2.05015	11.0409
2.04934	10.9805
2.04853	10.9631
2.04772	10.9154
2.04691	10.8924
2.04611	10.9869
2.0453	11.0877
2.04449	11.086
2.04369	11.0923
2.04288	10.9677
2.04208	10.8313
2.04127	11.0311
2.04047	11.0836
2.03967	10.9104
2.03886	11.0728
2.03806	10.9871
2.03726	10.871
2.03646	10.8883
2.03566	10.9141
2.03486	10.7306
2.03407	10.6122
2.03327	10.9747
2.03247	11.2066
2.03167	11.2022
2.03088	11.1405
2.03008	10.9214
2.02929	10.9454
2.0285	11.2836
2.0277	11.4656
2.02691	11.3445
2.02612	10.9799
2.02533	10.7003
2.02453	10.9773
2.02374	10.9781
2.02295	10.8726
2.02217	10.9334
2.02138	10.8748
2.02059	10.8598
2.0198	11.0447
2.01902	11.1377
2.01823	10.9732
2.01744	10.9138
2.01666	11.0463
2.01588	10.8632
2.01509	10.7229
2.01431	10.7272
2.01353	10.8357
2.01275	10.9299
2.01196	11.0096
2.01118	10.9913
2.0104	10.9988
2.00963	10.9499
2.00885	10.935
2.00807	10.7247
2.00729	10.7532
2.00651	11.1039
2.00574	11.2849
2.00496	11.0012
2.00419	10.6951
2.00341	10.7156
2.00264	10.8526
2.00187	10.9753
2.00109	10.8564
2.00032	10.9515
