Name: Cassiterite SnO_2
Type: Mineral
Class: Oxides
Subclass: 
Particle Size: 125-500um
Sample No.: O-3A
Owner: JPL
Wavelength range: IR
Origin: USA, South Dakota, Lawrence County, Tinton
Collected by Burminco
Description: 





Measurement: Hemispherical reflectance
First Column: X
Second Column: Y
X Units:  Wavelength (micrometers)
Y Units:  Reflectance (percent)
First X Value: 15.3853
Last X Value: 2.00032
Number of X Values: 2256
Additional information: o03aa.txt
 
15.3853	31.7863
15.3397	31.4543
15.2945	30.9564
15.2495	30.9468
15.2048	30.9825
15.1603	30.8128
15.1161	30.6132
15.0722	30.356
15.0285	30.1532
14.9851	29.8414
14.9419	29.5498
14.8989	29.479
14.8563	29.3534
14.8138	29.2214
14.7716	29.1979
14.7296	29.008
14.6879	28.7989
14.6464	28.7611
14.6052	28.7365
14.5641	28.5511
14.5233	28.3678
14.4828	28.6924
14.4424	29.0058
14.4023	28.9611
14.3624	28.8912
14.3227	28.9102
14.2833	28.7647
14.244	28.6896
14.205	28.6119
14.1662	28.3269
14.1276	28.3316
14.0892	28.3427
14.051	28.0893
14.0131	27.8306
13.9753	27.657
13.9377	27.4741
13.9004	27.161
13.8632	26.9076
13.8262	26.7312
13.7895	26.703
13.7529	26.4932
13.7165	26.0428
13.6803	25.7465
13.6443	25.5172
13.6085	25.2898
13.5729	25.0603
13.5374	24.8025
13.5022	24.5604
13.4671	24.2233
13.4322	23.851
13.3975	23.5122
13.363	23.3242
13.3286	23.0366
13.2944	22.8674
13.2604	22.5597
13.2266	22.2409
13.193	22.0085
13.1595	21.721
13.1262	21.424
13.093	21.1651
13.06	20.9404
13.0272	20.8231
12.9946	20.5804
12.9621	20.4348
12.9298	20.3739
12.8976	20.2002
12.8656	20.1943
12.8337	20.0873
12.8021	19.8618
12.7705	19.7493
12.7391	19.6057
12.7079	19.6241
12.6769	19.6697
12.6459	19.6084
12.6152	19.5661
12.5845	19.5538
12.5541	19.5733
12.5238	19.7532
12.4936	19.7517
12.4635	19.4979
12.4337	19.3105
12.4039	19.1879
12.3743	18.9941
12.3448	18.7519
12.3155	18.4888
12.2863	18.3252
12.2573	18.326
12.2284	18.2436
12.1996	18.1584
12.171	18.1765
12.1425	18.0805
12.1141	17.9824
12.0859	17.9779
12.0578	17.9021
12.0298	17.8051
12.0019	17.7539
11.9742	17.7125
11.9466	17.6261
11.9192	17.5161
11.8918	17.4482
11.8646	17.4428
11.8375	17.4515
11.8106	17.3837
11.7837	17.3986
11.757	17.487
11.7304	17.3726
11.7039	17.2552
11.6776	17.3829
11.6513	17.3693
11.6252	17.0556
11.5992	16.8787
11.5733	16.8237
11.5475	16.7558
11.5219	16.6847
11.4963	16.64
11.4709	16.6218
11.4455	16.4697
11.4203	16.36
11.3952	16.2497
11.3702	16.1092
11.3454	15.9415
11.3206	15.8092
11.2959	15.868
11.2714	15.8203
11.2469	15.6976
11.2226	15.6686
11.1983	15.6539
11.1742	15.6401
11.1502	15.5616
11.1263	15.4869
11.1024	15.4224
11.0787	15.5232
11.0551	15.5389
11.0316	15.4087
11.0081	15.3147
10.9848	15.3735
10.9616	15.426
10.9385	15.3908
10.9154	15.2857
10.8925	15.2522
10.8697	15.3325
10.8469	15.224
10.8243	15.1265
10.8017	15.209
10.7793	15.3062
10.7569	15.2977
10.7346	15.2902
10.7125	15.2211
10.6904	15.1544
10.6684	15.1567
10.6465	15.1527
10.6247	15.0984
10.6029	15.0832
10.5813	14.9862
10.5597	15.1341
10.5383	15.3173
10.5169	15.2189
10.4956	15.0741
10.4744	15.1641
10.4533	15.2489
10.4323	15.167
10.4113	15.095
10.3904	15.0043
10.3697	14.9858
10.349	14.9922
10.3284	15.0345
10.3078	15.1692
10.2874	15.1088
10.267	15.0428
10.2467	15.1325
10.2265	15.1724
10.2064	15.1287
10.1863	15.1167
10.1663	15.166
10.1464	15.2738
10.1266	15.2699
10.1069	15.1493
10.0872	15.1531
10.0676	15.1318
10.0481	15.1556
10.0287	15.2594
10.0093	15.2554
9.99005	15.3299
9.97084	15.3797
9.95169	15.3229
9.93263	15.3368
9.91364	15.3844
9.89472	15.3558
9.87587	15.2572
9.8571	15.2362
9.83839	15.3189
9.81976	15.2731
9.80119	15.3804
9.78271	15.595
9.76428	15.505
9.74592	15.3671
9.72764	15.3868
9.70943	15.546
9.69128	15.626
9.6732	15.5286
9.65518	15.6069
9.63724	15.751
9.61935	15.8042
9.60155	15.689
9.5838	15.6245
9.56611	15.717
9.5485	15.7074
9.53094	15.5933
9.51345	15.4825
9.49604	15.5129
9.47867	15.5423
9.46137	15.4825
9.44414	15.5312
9.42697	15.5222
9.40986	15.4736
9.39281	15.535
9.37583	15.5911
9.35891	15.5511
9.34204	15.4637
9.32524	15.4178
9.3085	15.357
9.29182	15.439
9.27519	15.6223
9.25863	15.588
9.24213	15.4437
9.22568	15.4116
9.2093	15.3648
9.19297	15.2505
9.17669	15.3002
9.16048	15.3869
9.14433	15.4001
9.12823	15.3153
9.11218	15.3106
9.0962	15.4197
9.08027	15.3357
9.06439	15.1851
9.04858	15.1682
9.03281	15.1754
9.0171	15.2032
9.00145	15.1441
8.98585	15.096
8.9703	15.1149
8.9548	15.1472
8.93937	15.2036
8.92398	15.0718
8.90865	15.0506
8.89337	15.0378
8.87814	14.8789
8.86296	14.8651
8.84784	14.8574
8.83277	14.794
8.81774	14.8377
8.80277	14.8868
8.78786	14.8821
8.77298	14.8015
8.75816	14.7213
8.7434	14.654
8.72868	14.5585
8.714	14.4764
8.69938	14.4939
8.68481	14.4688
8.67029	14.3407
8.65581	14.2713
8.64139	14.1769
8.62701	14.1698
8.61268	14.1047
8.5984	14.1328
8.58416	14.2599
8.56997	14.363
8.55583	14.4167
8.54174	14.3753
8.52769	14.3273
8.51368	14.2879
8.49973	14.2223
8.48582	14.1948
8.47195	14.2488
8.45813	14.2218
8.44436	14.1846
8.43062	14.11
8.41693	14.0707
8.4033	14.1271
8.3897	13.9748
8.37614	13.8195
8.36264	13.7699
8.34917	13.8664
8.33574	13.9389
8.32236	13.8994
8.30903	13.8516
8.29573	13.7957
8.28248	13.7539
8.26927	13.8034
8.2561	13.7559
8.24298	13.6697
8.2299	13.7265
8.21685	13.7253
8.20385	13.5933
8.19089	13.6737
8.17797	13.7578
8.16509	13.6031
8.15225	13.4596
8.13946	13.3797
8.1267	13.4483
8.11398	13.4367
8.10131	13.3262
8.08867	13.2634
8.07606	13.3246
8.0635	13.3268
8.05099	13.273
8.0385	13.2814
8.02606	13.1501
8.01366	13.0368
8.00129	12.9964
7.98896	13.0888
7.97667	13.1196
7.96442	13.0634
7.9522	13.0302
7.94002	12.9277
7.92788	12.956
7.91578	12.9947
7.90371	12.9375
7.89168	12.8942
7.87969	12.8756
7.86773	12.8467
7.85581	12.8368
7.84392	12.8071
7.83207	12.7578
7.82026	12.7605
7.80849	12.7569
7.79674	12.7099
7.78503	12.6299
7.77337	12.624
7.76173	12.6876
7.75012	12.6683
7.73856	12.5808
7.72703	12.6363
7.71553	12.6097
7.70406	12.584
7.69263	12.6412
7.68123	12.6673
7.66987	12.6139
7.65855	12.5664
7.64725	12.5748
7.63598	12.5493
7.62475	12.4728
7.61356	12.4067
7.60239	12.4264
7.59126	12.5235
7.58017	12.4789
7.5691	12.4406
7.55806	12.4811
7.54707	12.4633
7.5361	12.4073
7.52516	12.3806
7.51425	12.3963
7.50338	12.3912
7.49253	12.3454
7.48172	12.3357
7.47094	12.3845
7.46019	12.3278
7.44947	12.2169
7.43879	12.1931
7.42813	12.276
7.4175	12.3401
7.4069	12.3449
7.39634	12.3289
7.3858	12.3513
7.37529	12.2979
7.36482	12.219
7.35437	12.2288
7.34396	12.2616
7.33357	12.2895
7.32321	12.2291
7.31288	12.1873
7.30258	12.2414
7.29231	12.1983
7.28207	12.0846
7.27185	12.1101
7.26167	12.1466
7.25152	12.1005
7.24139	12.0464
7.23129	12.0603
7.22122	12.1259
7.21117	12.0961
7.20116	11.9955
7.19117	11.952
7.18121	12.0405
7.17128	12.1393
7.16137	12.0881
7.1515	12.0122
7.14164	12.004
7.13182	12.0395
7.12203	12.0959
7.11225	12.1093
7.10251	12.0425
7.0928	11.998
7.08311	11.9521
7.07344	11.924
7.06381	11.8603
7.0542	11.916
7.04461	11.9313
7.03506	11.808
7.02552	11.8308
7.01601	11.8514
7.00653	11.8029
6.99708	11.7602
6.98765	11.7415
6.97824	11.7095
6.96886	11.7143
6.95951	11.7994
6.95018	11.836
6.94087	11.766
6.9316	11.5973
6.92234	11.5862
6.91311	11.6686
6.90391	11.6898
6.89473	11.603
6.88557	11.5192
6.87644	11.4967
6.86733	11.599
6.85824	11.6366
6.84918	11.5809
6.84015	11.5619
6.83114	11.5545
6.82215	11.5458
6.81319	11.4438
6.80424	11.3925
6.79532	11.4774
6.78643	11.499
6.77756	11.5495
6.76871	11.5956
6.75989	11.5918
6.75109	11.5022
6.74231	11.2869
6.73355	11.2183
6.72482	11.2734
6.71611	11.3524
6.70742	11.2616
6.69875	11.2725
6.69011	11.3489
6.68149	11.2952
6.67289	11.1745
6.66431	11.1563
6.65576	11.2419
6.64722	11.2841
6.63871	11.339
6.63022	11.33
6.62175	11.258
6.61331	11.2038
6.60488	11.1581
6.59648	11.1955
6.5881	11.1284
6.57974	11.172
6.5714	11.2584
6.56308	11.1719
6.55478	11.1174
6.54651	11.0377
6.53825	11.0127
6.53001	11.0679
6.5218	11.1122
6.51361	11.0172
6.50544	10.9801
6.49729	11.0739
6.48915	11.0838
6.48104	11.0054
6.47295	10.9777
6.46488	10.9054
6.45683	10.8768
6.4488	10.8606
6.44079	10.8334
6.4328	10.8352
6.42482	10.8919
6.41687	11.0184
6.40894	10.9375
6.40103	10.8027
6.39314	10.8021
6.38526	10.7307
6.37741	10.6661
6.36957	10.7435
6.36176	10.7993
6.35396	10.8086
6.34618	10.799
6.33843	10.8251
6.33069	10.8779
6.32297	10.7508
6.31527	10.5732
6.30758	10.6148
6.29992	10.6537
6.29227	10.6491
6.28465	10.6929
6.27704	10.6442
6.26945	10.562
6.26188	10.5185
6.25432	10.5632
6.24679	10.5718
6.23927	10.5414
6.23177	10.6043
6.22429	10.6039
6.21683	10.6463
6.20938	10.5867
6.20195	10.4719
6.19454	10.4317
6.18715	10.4617
6.17978	10.4336
6.17242	10.4259
6.16508	10.4597
6.15776	10.4564
6.15045	10.3568
6.14317	10.3053
6.1359	10.3626
6.12864	10.364
6.12141	10.368
6.11419	10.3658
6.10699	10.2975
6.0998	10.236
6.09263	10.1694
6.08549	10.1817
6.07835	10.2864
6.07123	10.2909
6.06413	10.21
6.05705	10.1896
6.04998	10.3187
6.04293	10.2415
6.0359	10.1007
6.02888	10.0594
6.02187	10.1234
6.01489	10.1606
6.00792	10.0888
6.00096	10.0085
5.99403	10.0286
5.98711	10.0569
5.9802	10.0495
5.97331	10.0003
5.96644	9.8804
5.95958	9.79924
5.95274	9.82595
5.94591	9.86269
5.9391	10.0026
5.9323	9.89236
5.92552	9.72071
5.91876	9.71833
5.91201	9.722
5.90528	9.72812
5.89856	9.80699
5.89186	9.75405
5.88517	9.7285
5.8785	9.70939
5.87184	9.53289
5.8652	9.49519
5.85857	9.55045
5.85196	9.54591
5.84536	9.47405
5.83878	9.53181
5.83221	9.61434
5.82566	9.59148
5.81912	9.55233
5.81259	9.55379
5.80608	9.51064
5.79959	9.45725
5.79311	9.47229
5.78665	9.49951
5.78019	9.53455
5.77376	9.55241
5.76734	9.57177
5.76093	9.59484
5.75453	9.57902
5.74815	9.58219
5.74179	9.59467
5.73543	9.55245
5.7291	9.50138
5.72277	9.48129
5.71646	9.51477
5.71017	9.57408
5.70389	9.64492
5.69762	9.65469
5.69136	9.60196
5.68513	9.59147
5.6789	9.66944
5.67268	9.69697
5.66648	9.62722
5.6603	9.70709
5.65413	9.75771
5.64797	9.67694
5.64182	9.71749
5.63569	9.77404
5.62957	9.74892
5.62347	9.71627
5.61737	9.6738
5.61129	9.78755
5.60522	9.88175
5.59917	9.90492
5.59313	9.83499
5.5871	9.80415
5.58109	9.85646
5.57509	9.92494
5.5691	9.91981
5.56312	9.82832
5.55716	9.80705
5.55121	9.84225
5.54528	9.79664
5.53935	9.77488
5.53344	9.80741
5.52754	9.78963
5.52166	9.78854
5.51578	9.79349
5.50992	9.74646
5.50407	9.73154
5.49823	9.74785
5.49241	9.73888
5.4866	9.76882
5.4808	9.79764
5.47501	9.75815
5.46923	9.70099
5.46347	9.69216
5.45772	9.73302
5.45198	9.77873
5.44625	9.70093
5.44054	9.61966
5.43484	9.61915
5.42914	9.66708
5.42347	9.676
5.4178	9.62577
5.41214	9.60475
5.4065	9.50354
5.40087	9.49962
5.39525	9.53334
5.38964	9.53704
5.38404	9.50997
5.37846	9.46181
5.37288	9.45807
5.36732	9.4432
5.36177	9.41468
5.35623	9.41213
5.35071	9.40362
5.34519	9.38057
5.33968	9.40672
5.33419	9.39092
5.32871	9.37031
5.32324	9.336
5.31778	9.27759
5.31233	9.27874
5.30689	9.27834
5.30147	9.22471
5.29605	9.24093
5.29065	9.30637
5.28525	9.21655
5.27987	9.1831
5.2745	9.22352
5.26914	9.18558
5.26379	9.19017
5.25845	9.24555
5.25312	9.18909
5.24781	9.16845
5.2425	9.17638
5.23721	9.15652
5.23192	9.22247
5.22665	9.18321
5.22138	9.13013
5.21613	9.16844
5.21089	9.13415
5.20566	9.0852
5.20044	9.12475
5.19522	9.13541
5.19002	9.06538
5.18483	8.99838
5.17965	8.98415
5.17448	9.00053
5.16933	9.0212
5.16418	8.97697
5.15904	8.88182
5.15391	8.86626
5.14879	8.9655
5.14368	8.97655
5.13859	8.89617
5.1335	8.86109
5.12842	8.90837
5.12335	8.88462
5.1183	8.82366
5.11325	8.77021
5.10821	8.74179
5.10318	8.76419
5.09817	8.75889
5.09316	8.7221
5.08816	8.74421
5.08317	8.73243
5.07819	8.66029
5.07322	8.61768
5.06826	8.58398
5.06331	8.61541
5.05837	8.64032
5.05344	8.62458
5.04852	8.55961
5.04361	8.44919
5.03871	8.44662
5.03382	8.51094
5.02894	8.59713
5.02406	8.62492
5.0192	8.52899
5.01435	8.43794
5.0095	8.46872
5.00467	8.47991
4.99984	8.41969
4.99502	8.4005
4.99021	8.44804
4.98542	8.44872
4.98063	8.42579
4.97585	8.44235
4.97108	8.38881
4.96632	8.35882
4.96156	8.35172
4.95682	8.34564
4.95209	8.35022
4.94736	8.28592
4.94264	8.26074
4.93794	8.37736
4.93324	8.41585
4.92855	8.33121
4.92387	8.25148
4.9192	8.23178
4.91453	8.26386
4.90988	8.23818
4.90524	8.25309
4.9006	8.29957
4.89597	8.21253
4.89135	8.15686
4.88674	8.1733
4.88214	8.19181
4.87755	8.20056
4.87296	8.1957
4.86839	8.13299
4.86382	8.08403
4.85926	8.11819
4.85471	8.10739
4.85017	8.1701
4.84564	8.17629
4.84111	8.10972
4.8366	8.048
4.83209	8.04199
4.82759	7.97881
4.8231	7.95774
4.81862	7.95956
4.81415	8.00325
4.80968	8.01259
4.80522	7.94662
4.80077	7.93533
4.79633	7.91452
4.7919	7.91179
4.78747	7.99194
4.78306	7.97518
4.77865	7.93168
4.77425	7.96233
4.76986	7.9629
4.76547	7.98131
4.7611	7.98178
4.75673	7.90771
4.75237	7.85895
4.74802	7.83172
4.74367	7.77476
4.73934	7.80819
4.73501	7.83272
4.73069	7.7702
4.72638	7.76039
4.72207	7.75125
4.71777	7.82177
4.71348	7.84257
4.7092	7.75122
4.70493	7.71843
4.70066	7.68768
4.69641	7.5953
4.69216	7.59361
4.68791	7.62117
4.68368	7.64334
4.67945	7.66438
4.67523	7.68558
4.67102	7.6166
4.66682	7.56434
4.66262	7.52453
4.65843	7.52025
4.65425	7.58594
4.65007	7.51183
4.64591	7.47073
4.64175	7.48716
4.6376	7.52717
4.63345	7.57985
4.62932	7.5869
4.62519	7.51477
4.62106	7.39108
4.61695	7.34378
4.61284	7.49055
4.60874	7.61556
4.60465	7.51745
4.60056	7.37947
4.59648	7.29948
4.59241	7.29049
4.58835	7.38135
4.58429	7.40746
4.58024	7.35461
4.5762	7.33838
4.57216	7.29915
4.56814	7.32062
4.56411	7.35628
4.5601	7.38409
4.55609	7.3578
4.55209	7.29647
4.5481	7.25736
4.54411	7.27229
4.54013	7.27386
4.53616	7.20303
4.5322	7.24021
4.52824	7.35486
4.52429	7.27723
4.52034	7.16067
4.51641	7.10678
4.51247	7.06414
4.50855	7.02016
4.50463	7.05958
4.50072	7.08415
4.49682	7.1522
4.49292	7.1763
4.48903	7.08871
4.48515	7.10483
4.48127	7.15441
4.4774	7.14899
4.47354	7.10431
4.46968	7.03261
4.46584	6.96429
4.46199	6.99411
4.45815	6.95134
4.45432	6.93591
4.4505	7.03165
4.44668	7.06283
4.44287	6.99774
4.43907	6.98742
4.43527	6.939
4.43148	6.85128
4.4277	6.8113
4.42392	6.86783
4.42015	6.87492
4.41638	6.80432
4.41262	6.8082
4.40887	6.88855
4.40513	6.97189
4.40139	6.92832
4.39765	6.83524
4.39393	6.84428
4.39021	6.85635
4.38649	6.85833
4.38278	6.93063
4.37908	6.89267
4.37539	6.72228
4.3717	6.70759
4.36801	6.79549
4.36434	6.77095
4.36067	6.63773
4.357	6.61842
4.35335	6.6642
4.34969	6.68193
4.34605	6.70321
4.34241	6.74163
4.33877	6.72351
4.33514	6.69198
4.33152	6.63875
4.32791	6.67864
4.3243	6.73398
4.32069	6.70314
4.3171	6.68748
4.31351	6.64352
4.30992	6.6281
4.30634	6.65034
4.30277	6.60212
4.2992	6.52074
4.29564	6.49877
4.29208	6.50642
4.28853	6.50904
4.28499	6.46609
4.28145	6.41259
4.27792	6.39452
4.27439	6.41872
4.27087	6.44255
4.26735	6.40437
4.26384	6.32631
4.26034	6.24284
4.25684	6.29775
4.25335	6.41582
4.24986	6.44422
4.24638	6.42221
4.24291	6.43481
4.23944	6.41534
4.23598	6.41478
4.23252	6.33505
4.22906	6.29727
4.22562	6.29965
4.22218	6.33584
4.21874	6.40231
4.21531	6.44169
4.21189	6.38251
4.20847	6.28311
4.20506	6.24919
4.20165	6.29421
4.19825	6.3542
4.19485	6.32471
4.19146	6.30119
4.18807	6.26016
4.18469	6.25839
4.18132	6.26649
4.17795	6.28991
4.17458	6.25151
4.17123	6.2006
4.16787	6.14546
4.16453	6.17689
4.16118	6.27575
4.15785	6.31574
4.15451	6.24112
4.15119	6.17287
4.14787	6.19744
4.14455	6.23123
4.14124	6.19114
4.13794	6.15204
4.13464	6.1411
4.13134	6.16263
4.12805	6.1215
4.12477	6.09422
4.12149	6.09362
4.11822	6.06771
4.11495	6.0563
4.11168	6.03197
4.10843	6.0231
4.10517	6.08371
4.10192	6.06665
4.09868	5.96812
4.09545	6.00377
4.09221	6.11819
4.08899	6.05731
4.08576	5.9796
4.08255	6.05261
4.07933	6.07507
4.07613	6.05383
4.07292	5.96553
4.06973	6.00486
4.06654	6.04849
4.06335	5.89481
4.06017	5.77902
4.05699	5.80337
4.05382	5.862
4.05065	5.93506
4.04749	5.999
4.04433	5.98441
4.04118	5.87159
4.03803	5.8514
4.03489	5.91279
4.03175	5.90989
4.02862	5.83818
4.02549	5.83809
4.02237	5.8589
4.01925	5.92642
4.01614	5.85516
4.01303	5.80839
4.00993	5.83401
4.00683	5.85474
4.00373	5.83531
4.00064	5.75035
3.99756	5.74443
3.99448	5.8229
3.9914	5.88648
3.98833	5.77307
3.98527	5.69317
3.98221	5.73141
3.97915	5.75065
3.9761	5.77047
3.97305	5.75705
3.97001	5.692
3.96697	5.64674
3.96394	5.65122
3.96091	5.64976
3.95789	5.60421
3.95487	5.59403
3.95186	5.66054
3.94885	5.70752
3.94584	5.65484
3.94284	5.53165
3.93984	5.53979
3.93685	5.57901
3.93386	5.62422
3.93088	5.66387
3.9279	5.58011
3.92493	5.56146
3.92196	5.58633
3.919	5.53963
3.91604	5.51572
3.91308	5.57047
3.91013	5.53353
3.90718	5.47627
3.90424	5.4914
3.9013	5.51855
3.89837	5.4758
3.89544	5.55596
3.89252	5.60325
3.8896	5.57411
3.88668	5.52373
3.88377	5.50355
3.88086	5.44297
3.87796	5.34684
3.87506	5.32718
3.87217	5.4227
3.86928	5.48509
3.86639	5.48302
3.86351	5.47279
3.86064	5.44633
3.85776	5.36767
3.8549	5.39029
3.85203	5.45878
3.84917	5.45454
3.84631	5.40872
3.84346	5.41977
3.84062	5.39474
3.83777	5.32687
3.83494	5.35926
3.8321	5.4634
3.82927	5.40409
3.82644	5.32232
3.82362	5.31848
3.82081	5.36384
3.81799	5.39881
3.81518	5.36417
3.81238	5.3182
3.80958	5.24945
3.80678	5.19636
3.80399	5.21428
3.8012	5.21152
3.79841	5.20197
3.79563	5.24607
3.79286	5.28152
3.79008	5.3626
3.78731	5.44232
3.78455	5.33941
3.78179	5.21112
3.77903	5.19768
3.77628	5.2093
3.77353	5.1503
3.77079	5.13535
3.76805	5.12461
3.76531	5.20893
3.76258	5.24036
3.75985	5.23479
3.75713	5.26702
3.7544	5.24409
3.75169	5.18758
3.74898	5.15759
3.74627	5.14237
3.74356	5.17827
3.74086	5.19696
3.73816	5.1213
3.73547	5.06926
3.73278	5.1189
3.7301	5.11881
3.72741	5.06353
3.72474	5.04521
3.72206	5.0764
3.71939	5.06283
3.71673	5.06077
3.71406	5.02283
3.71141	5.05588
3.70875	5.10983
3.7061	5.10301
3.70345	5.10018
3.70081	5.09103
3.69817	5.08529
3.69553	5.04562
3.6929	5.0591
3.69027	5.0751
3.68765	5.05134
3.68503	5.06332
3.68241	5.05858
3.6798	5.06232
3.67719	5.06493
3.67458	5.01893
3.67198	5.06059
3.66938	5.10477
3.66678	5.08045
3.66419	5.05381
3.66161	5.01103
3.65902	4.95613
3.65644	4.9368
3.65387	4.97327
3.65129	4.99943
3.64872	4.98475
3.64616	5.03601
3.64359	5.00343
3.64103	4.93951
3.63848	4.96601
3.63593	5.03148
3.63338	4.97224
3.63084	4.91045
3.6283	4.94982
3.62576	4.96932
3.62322	4.95458
3.62069	4.9482
3.61817	4.94144
3.61564	4.98207
3.61312	4.96725
3.61061	4.92116
3.6081	4.96657
3.60559	5.01007
3.60308	4.98167
3.60058	5.03868
3.59808	5.05518
3.59558	4.97862
3.59309	4.97414
3.59061	4.93479
3.58812	4.87257
3.58564	4.92802
3.58316	4.86197
3.58069	4.78822
3.57822	4.76908
3.57575	4.80451
3.57328	4.84731
3.57082	4.81993
3.56836	4.75839
3.56591	4.78751
3.56346	4.78389
3.56101	4.76367
3.55857	4.7957
3.55613	4.81267
3.55369	4.82079
3.55126	4.74023
3.54883	4.77435
3.5464	4.80857
3.54397	4.76594
3.54155	4.826
3.53914	4.8217
3.53672	4.81197
3.53431	4.77828
3.5319	4.70174
3.5295	4.69458
3.5271	4.76967
3.5247	4.81923
3.52231	4.79324
3.51991	4.73012
3.51753	4.66913
3.51514	4.65285
3.51276	4.70934
3.51038	4.71837
3.50801	4.71947
3.50563	4.70541
3.50327	4.65704
3.5009	4.71915
3.49854	4.78934
3.49618	4.77888
3.49382	4.68854
3.49147	4.63664
3.48912	4.55272
3.48677	4.58665
3.48443	4.60757
3.48209	4.60975
3.47975	4.69759
3.47742	4.69182
3.47509	4.59736
3.47276	4.56062
3.47044	4.66632
3.46812	4.75244
3.4658	4.73643
3.46348	4.69679
3.46117	4.70176
3.45886	4.68923
3.45656	4.58909
3.45425	4.55055
3.45195	4.64426
3.44966	4.66374
3.44736	4.64247
3.44507	4.61181
3.44279	4.51832
3.4405	4.49709
3.43822	4.51563
3.43594	4.51258
3.43367	4.55054
3.43139	4.58945
3.42912	4.55156
3.42686	4.47189
3.42459	4.44756
3.42233	4.55524
3.42007	4.60015
3.41782	4.62512
3.41557	4.56131
3.41332	4.45536
3.41108	4.47512
3.40883	4.53682
3.40659	4.57674
3.40435	4.515
3.40212	4.37002
3.39989	4.40164
3.39766	4.46689
3.39544	4.51103
3.39322	4.52491
3.391	4.46449
3.38878	4.47006
3.38657	4.53457
3.38436	4.50889
3.38215	4.51471
3.37994	4.56197
3.37774	4.5856
3.37554	4.49487
3.37335	4.45365
3.37115	4.4438
3.36896	4.37634
3.36678	4.40523
3.36459	4.38795
3.36241	4.3514
3.36023	4.21364
3.35805	4.19766
3.35588	4.28573
3.35371	4.3144
3.35154	4.37454
3.34938	4.35419
3.34721	4.35909
3.34505	4.43885
3.3429	4.28611
3.34074	4.25899
3.33859	4.42055
3.33644	4.45204
3.3343	4.33828
3.33215	4.31582
3.33001	4.38733
3.32788	4.38333
3.32574	4.32997
3.32361	4.2494
3.32148	4.1706
3.31936	4.25692
3.31723	4.34471
3.31511	4.30895
3.31299	4.23287
3.31088	4.25659
3.30876	4.26758
3.30665	4.36318
3.30455	4.34408
3.30244	4.25708
3.30034	4.27144
3.29824	4.26907
3.29614	4.29517
3.29405	4.25479
3.29196	4.25472
3.28987	4.30023
3.28778	4.30175
3.2857	4.17813
3.28362	4.08616
3.28154	4.11629
3.27946	4.22275
3.27739	4.29397
3.27532	4.28529
3.27325	4.19605
3.27119	4.09791
3.26913	4.11849
3.26707	4.22133
3.26501	4.32349
3.26295	4.29156
3.2609	4.2844
3.25885	4.23062
3.2568	4.10528
3.25476	4.12697
3.25272	4.17809
3.25068	4.27044
3.24864	4.2833
3.24661	4.15102
3.24458	4.06957
3.24255	4.04319
3.24052	4.1009
3.2385	4.09941
3.23648	4.04293
3.23446	4.04814
3.23244	4.11204
3.23043	4.11352
3.22841	4.07309
3.2264	4.05608
3.2244	4.07292
3.22239	4.13217
3.22039	4.12291
3.21839	4.11854
3.2164	4.15356
3.2144	4.14519
3.21241	4.18959
3.21042	4.21791
3.20844	4.10984
3.20645	4.04644
3.20447	4.023
3.20249	4.0206
3.20051	4.04636
3.19854	4.05023
3.19657	4.08855
3.1946	4.05972
3.19263	4.0164
3.19067	4.04
3.1887	4.06137
3.18674	4.12345
3.18479	4.11919
3.18283	4.05293
3.18088	3.98183
3.17893	4.01192
3.17698	4.04865
3.17504	3.99678
3.17309	3.98758
3.17115	3.93037
3.16921	3.90147
3.16728	3.81671
3.16534	3.75308
3.16341	3.838
3.16148	3.95014
3.15956	4.01499
3.15763	3.99973
3.15571	3.90034
3.15379	3.8881
3.15187	3.93927
3.14996	3.94236
3.14805	3.9863
3.14614	3.97117
3.14423	3.91996
3.14232	3.9229
3.14042	3.87112
3.13852	3.83188
3.13662	3.94215
3.13472	4.02502
3.13283	4.04318
3.13094	3.92799
3.12905	3.87224
3.12716	3.91209
3.12528	3.92927
3.12339	3.88489
3.12151	3.84644
3.11964	3.87692
3.11776	3.9191
3.11589	3.88638
3.11401	3.88795
3.11214	4.03333
3.11028	4.07713
3.10841	3.85484
3.10655	3.73965
3.10469	3.82846
3.10283	3.82695
3.10098	3.79799
3.09912	3.8309
3.09727	3.80097
3.09542	3.74889
3.09358	3.80384
3.09173	3.8277
3.08989	3.75318
3.08805	3.66707
3.08621	3.74429
3.08437	3.76995
3.08254	3.70275
3.08071	3.66111
3.07888	3.72502
3.07705	3.90916
3.07523	3.97072
3.0734	3.91392
3.07158	3.87189
3.06977	3.82739
3.06795	3.69355
3.06613	3.65289
3.06432	3.79076
3.06251	3.83062
3.0607	3.72703
3.0589	3.767
3.0571	3.93567
3.05529	3.93101
3.05349	3.85865
3.0517	3.84227
3.0499	3.83568
3.04811	3.81348
3.04632	3.80857
3.04453	3.74366
3.04274	3.65337
3.04096	3.68891
3.03918	3.75938
3.0374	3.85044
3.03562	3.85674
3.03384	3.74148
3.03207	3.67076
3.03029	3.76675
3.02852	3.86389
3.02676	3.88404
3.02499	3.7916
3.02323	3.71563
3.02146	3.75175
3.0197	3.71691
3.01795	3.68006
3.01619	3.74475
3.01444	3.7168
3.01269	3.61781
3.01094	3.72029
3.00919	3.82725
3.00744	3.76093
3.0057	3.68984
3.00396	3.73708
3.00222	3.62748
3.00048	3.58849
2.99875	3.6248
2.99701	3.6417
2.99528	3.70628
2.99355	3.78826
2.99183	3.84334
2.9901	3.77559
2.98838	3.69677
2.98666	3.6734
2.98494	3.6963
2.98322	3.73808
2.9815	3.79733
2.97979	3.69196
2.97808	3.60327
2.97637	3.73931
2.97466	3.8321
2.97295	3.8362
2.97125	3.91987
2.96955	3.90769
2.96785	3.86704
2.96615	3.76921
2.96446	3.68093
2.96276	3.67843
2.96107	3.62695
2.95938	3.57124
2.95769	3.58638
2.95601	3.62623
2.95432	3.67686
2.95264	3.78523
2.95096	3.79002
2.94928	3.65185
2.9476	3.64855
2.94593	3.72319
2.94425	3.71598
2.94258	3.70241
2.94092	3.64647
2.93925	3.53272
2.93758	3.6606
2.93592	3.82349
2.93426	3.75306
2.9326	3.62581
2.93094	3.71272
2.92928	3.71037
2.92763	3.56464
2.92598	3.6221
2.92433	3.66602
2.92268	3.66753
2.92103	3.73167
2.91939	3.79452
2.91775	3.76584
2.9161	3.69936
2.91447	3.65586
2.91283	3.72009
2.91119	3.78153
2.90956	3.75199
2.90793	3.64918
2.9063	3.55535
2.90467	3.56862
2.90304	3.59483
2.90142	3.61161
2.89979	3.6032
2.89817	3.60971
2.89656	3.66197
2.89494	3.72029
2.89332	3.73773
2.89171	3.72409
2.8901	3.73395
2.88849	3.70621
2.88688	3.65473
2.88527	3.66399
2.88367	3.63432
2.88206	3.7535
2.88046	3.77727
2.87886	3.64071
2.87727	3.67551
2.87567	3.66201
2.87408	3.6985
2.87248	3.79972
2.87089	3.76283
2.8693	3.66566
2.86772	3.64922
2.86613	3.73416
2.86455	3.87911
2.86297	3.93966
2.86139	3.87195
2.85981	3.83021
2.85823	3.75385
2.85666	3.74885
2.85508	3.79725
2.85351	3.80771
2.85194	3.93781
2.85038	3.90304
2.84881	3.79552
2.84724	3.7676
2.84568	3.91267
2.84412	3.96703
2.84256	4.01138
2.841	3.96392
2.83945	3.86655
2.83789	3.94215
2.83634	4.08206
2.83479	4.12537
2.83324	4.07195
2.83169	4.00925
2.83015	3.95254
2.82861	3.92713
2.82706	4.04691
2.82552	4.08844
2.82398	3.99288
2.82245	4.11013
2.82091	4.1116
2.81938	4.00728
2.81784	4.036
2.81631	4.20228
2.81479	4.25102
2.81326	4.107
2.81173	4.03413
2.81021	4.19954
2.80869	4.26958
2.80716	4.11058
2.80565	4.03069
2.80413	4.1032
2.80261	4.16996
2.8011	4.2296
2.79959	4.27259
2.79808	4.33593
2.79657	4.22624
2.79506	4.25239
2.79355	4.26523
2.79205	4.18976
2.79055	4.14829
2.78904	4.34509
2.78754	4.39135
2.78605	4.27943
2.78455	4.15973
2.78306	4.05221
2.78156	3.97754
2.78007	3.93009
2.77858	4.12091
2.77709	4.30967
2.77561	4.46825
2.77412	4.46306
2.77264	4.39829
2.77116	4.35167
2.76968	4.45509
2.7682	4.42956
2.76672	4.32222
2.76524	4.41854
2.76377	4.47043
2.7623	4.44237
2.76083	4.42923
2.75936	4.43125
2.75789	4.27927
2.75642	4.46779
2.75496	4.561
2.7535	4.36277
2.75203	4.44313
2.75057	4.42548
2.74912	4.34767
2.74766	4.44757
2.7462	4.49492
2.74475	4.44896
2.7433	4.37332
2.74185	4.36098
2.7404	4.58122
2.73895	4.67919
2.7375	4.48394
2.73606	4.42138
2.73462	4.41736
2.73318	4.41075
2.73174	4.52823
2.7303	4.59081
2.72886	4.58943
2.72742	4.62358
2.72599	4.7351
2.72456	4.76475
2.72313	4.67261
2.7217	4.62972
2.72027	4.80857
2.71884	4.84486
2.71742	4.70962
2.71599	4.72487
2.71457	4.8023
2.71315	4.79068
2.71173	4.80838
2.71032	4.75867
2.7089	4.67706
2.70748	4.7018
2.70607	4.81683
2.70466	4.81448
2.70325	4.76744
2.70184	4.85259
2.70043	4.88508
2.69903	4.82879
2.69762	4.78375
2.69622	4.85487
2.69482	4.8361
2.69342	4.87323
2.69202	4.81528
2.69062	4.8674
2.68923	5.02462
2.68783	4.95366
2.68644	4.86851
2.68505	4.87683
2.68366	4.87087
2.68227	4.93736
2.68089	4.9505
2.6795	5.0326
2.67812	5.06268
2.67673	4.92369
2.67535	4.85743
2.67397	4.93301
2.6726	5.0276
2.67122	5.08548
2.66984	5.06635
2.66847	4.94352
2.6671	4.88343
2.66572	4.96593
2.66435	4.91996
2.66299	4.90764
2.66162	4.96592
2.66025	4.98796
2.65889	4.96534
2.65753	4.92914
2.65616	4.96236
2.65481	4.97133
2.65345	4.9118
2.65209	5.01467
2.65073	5.07113
2.64938	4.95892
2.64803	4.9719
2.64667	5.09212
2.64532	5.10228
2.64397	4.95394
2.64263	4.8481
2.64128	5.00396
2.63994	5.15567
2.63859	5.06852
2.63725	4.95523
2.63591	4.97759
2.63457	4.98313
2.63323	4.97723
2.6319	4.94834
2.63056	5.02945
2.62923	5.03957
2.62789	4.9883
2.62656	5.02611
2.62523	5.07401
2.6239	5.12618
2.62258	5.08749
2.62125	5.00859
2.61993	4.96957
2.6186	4.89044
2.61728	4.94081
2.61596	5.05777
2.61464	5.0049
2.61332	4.9023
2.61201	4.87913
2.61069	4.94025
2.60938	4.89695
2.60807	4.91437
2.60675	5.00342
2.60544	5.06384
2.60414	4.93205
2.60283	4.96276
2.60152	5.14431
2.60022	5.1376
2.59891	5.0585
2.59761	5.14117
2.59631	5.20141
2.59501	5.13816
2.59371	5.06146
2.59242	4.9754
2.59112	4.94059
2.58983	4.94864
2.58853	5.04907
2.58724	5.07632
2.58595	5.08846
2.58466	5.1612
2.58338	5.13494
2.58209	5.06211
2.5808	5.23928
2.57952	5.38354
2.57824	5.33681
2.57695	5.15934
2.57567	5.02259
2.5744	5.0888
2.57312	5.20911
2.57184	5.05322
2.57057	4.9727
2.56929	5.05169
2.56802	5.12692
2.56675	5.11631
2.56548	5.09092
2.56421	5.05736
2.56294	5.13074
2.56168	5.16039
2.56041	5.22779
2.55915	5.19326
2.55789	5.05977
2.55662	5.01976
2.55536	4.96516
2.5541	5.0496
2.55285	5.07433
2.55159	4.96799
2.55034	4.99689
2.54908	5.05584
2.54783	4.98122
2.54658	4.98351
2.54533	5.12742
2.54408	5.27253
2.54283	5.21868
2.54159	5.20078
2.54034	5.18795
2.5391	5.15535
2.53785	5.19862
2.53661	5.03708
2.53537	4.90274
2.53413	5.0192
2.53289	5.17293
2.53166	5.16816
2.53042	5.12245
2.52919	5.12767
2.52795	5.14508
2.52672	5.19814
2.52549	5.20731
2.52426	5.20048
2.52303	5.0185
2.52181	4.9208
2.52058	5.03975
2.51936	5.11686
2.51813	5.07508
2.51691	5.13164
2.51569	5.14487
2.51447	5.06694
2.51325	5.11523
2.51203	5.17299
2.51082	5.11795
2.5096	5.03366
2.50839	4.99756
2.50717	5.09875
2.50596	5.25345
2.50475	5.22678
2.50354	5.0738
2.50233	5.05841
2.50113	5.04228
2.49992	5.03711
2.49872	5.09326
2.49751	5.14578
2.49631	5.10941
2.49511	5.12859
2.49391	5.15847
2.49271	5.15469
2.49151	5.09575
2.49031	5.2644
2.48912	5.30384
2.48792	5.19929
2.48673	5.17992
2.48554	5.08187
2.48435	4.959
2.48316	4.9665
2.48197	4.98846
2.48078	5.06419
2.4796	5.04399
2.47841	5.12373
2.47723	5.12767
2.47604	5.0546
2.47486	5.06819
2.47368	5.12564
2.4725	5.17544
2.47132	5.04715
2.47014	4.95293
2.46897	4.98311
2.46779	5.17553
2.46662	5.31751
2.46545	5.23799
2.46427	5.10934
2.4631	5.07754
2.46193	5.06732
2.46077	5.14607
2.4596	5.22803
2.45843	5.16901
2.45727	5.17176
2.4561	5.17813
2.45494	5.09328
2.45378	5.07576
2.45262	5.01103
2.45146	4.95815
2.4503	5.07789
2.44914	5.26079
2.44799	5.1117
2.44683	5.0768
2.44568	5.28036
2.44452	5.3189
2.44337	5.22494
2.44222	5.13079
2.44107	5.16971
2.43992	5.17861
2.43877	5.13722
2.43763	5.10763
2.43648	5.07133
2.43534	5.06351
2.43419	5.1043
2.43305	5.07085
2.43191	5.12152
2.43077	5.00562
2.42963	5.03788
2.42849	5.15974
2.42736	5.1454
2.42622	5.08169
2.42509	4.9996
2.42395	4.92627
2.42282	5.04702
2.42169	5.3178
2.42056	5.29378
2.41943	5.33077
2.4183	5.43929
2.41717	5.26498
2.41605	5.20625
2.41492	5.22166
2.4138	5.24463
2.41267	5.49869
2.41155	5.46303
2.41043	5.0741
2.40931	5.03125
2.40819	5.07954
2.40707	5.1253
2.40595	5.02803
2.40484	4.86782
2.40372	5.04052
2.40261	5.38101
2.4015	5.36401
2.40039	5.13894
2.39928	5.03389
2.39817	5.10389
2.39706	5.2468
2.39595	5.2182
2.39484	5.16429
2.39374	5.13298
2.39263	5.10749
2.39153	5.0693
2.39043	4.99624
2.38932	4.988
2.38822	5.0362
2.38712	5.14121
2.38603	5.20503
2.38493	5.10911
2.38383	5.12194
2.38274	5.10744
2.38164	5.14973
2.38055	5.22043
2.37946	5.28265
2.37836	5.21082
2.37727	5.12338
2.37618	5.16965
2.3751	5.12918
2.37401	5.17723
2.37292	5.201
2.37184	5.25726
2.37075	5.19256
2.36967	5.17334
2.36859	5.15364
2.3675	5.14231
2.36642	5.16109
2.36534	5.15603
2.36427	5.17311
2.36319	5.03706
2.36211	5.01751
2.36104	5.00008
2.35996	5.11943
2.35889	5.26584
2.35781	5.30484
2.35674	5.26735
2.35567	5.25145
2.3546	5.24652
2.35353	5.11945
2.35247	5.12708
2.3514	4.99971
2.35033	4.76923
2.34927	4.89829
2.3482	5.23399
2.34714	5.30359
2.34608	5.16575
2.34502	5.1733
2.34396	5.1054
2.3429	5.01304
2.34184	5.12279
2.34078	5.12822
2.33973	5.12956
2.33867	5.24997
2.33762	5.29728
2.33656	5.08602
2.33551	5.03287
2.33446	5.18346
2.33341	5.10279
2.33236	5.04386
2.33131	5.26174
2.33026	5.3344
2.32922	5.1808
2.32817	5.1253
2.32712	5.28265
2.32608	5.19716
2.32504	5.10214
2.324	5.09082
2.32295	5.16602
2.32191	5.21388
2.32087	5.16503
2.31984	5.16412
2.3188	5.19471
2.31776	5.19966
2.31673	5.18976
2.31569	5.14937
2.31466	5.13709
2.31362	5.16277
2.31259	5.19646
2.31156	5.22067
2.31053	5.18263
2.3095	5.24674
2.30847	5.4501
2.30745	5.28801
2.30642	5.29231
2.3054	5.3278
2.30437	4.97784
2.30335	4.95934
2.30232	5.25256
2.3013	5.37466
2.30028	5.22534
2.29926	5.11305
2.29824	5.117
2.29722	5.13808
2.29621	5.11972
2.29519	5.18932
2.29417	5.26731
2.29316	5.30667
2.29215	5.19133
2.29113	5.0518
2.29012	5.01697
2.28911	5.14134
2.2881	5.29167
2.28709	5.25375
2.28608	5.28129
2.28507	5.32672
2.28407	5.2338
2.28306	5.12282
2.28206	5.16734
2.28105	5.26109
2.28005	5.12803
2.27905	5.12411
2.27805	5.31433
2.27705	5.31266
2.27605	5.26172
2.27505	5.32209
2.27405	5.25548
2.27305	5.10187
2.27206	5.06563
2.27106	5.22158
2.27007	5.30531
2.26907	5.21804
2.26808	5.18339
2.26709	5.27049
2.2661	5.3145
2.26511	5.34191
2.26412	5.24413
2.26313	5.25497
2.26214	5.22347
2.26116	5.08501
2.26017	5.07283
2.25919	5.31641
2.2582	5.34093
2.25722	5.22055
2.25624	5.35696
2.25526	5.35654
2.25428	5.11391
2.2533	5.12787
2.25232	5.12169
2.25134	5.11484
2.25036	5.25371
2.24939	5.36796
2.24841	5.18078
2.24744	5.05024
2.24646	5.29936
2.24549	5.41723
2.24452	5.32319
2.24355	5.3744
2.24257	5.47866
2.24161	5.26288
2.24064	5.22103
2.23967	5.21675
2.2387	5.21054
2.23774	5.28105
2.23677	5.23161
2.23581	5.20358
2.23484	5.28984
2.23388	5.2975
2.23292	5.18409
2.23196	5.16595
2.231	5.28934
2.23004	5.25239
2.22908	5.09901
2.22812	5.19048
2.22716	5.36488
2.22621	5.29087
2.22525	5.37875
2.2243	5.32181
2.22334	5.16697
2.22239	5.27942
2.22144	5.25717
2.22049	5.12165
2.21953	5.09081
2.21859	5.14359
2.21764	5.24419
2.21669	5.35469
2.21574	5.51634
2.21479	5.42389
2.21385	5.27359
2.2129	5.31039
2.21196	5.21049
2.21102	5.17276
2.21007	5.24222
2.20913	5.17201
2.20819	5.20796
2.20725	5.19072
2.20631	5.13299
2.20537	5.22
2.20444	5.181
2.2035	5.09903
2.20256	5.15896
2.20163	5.2008
2.20069	5.08942
2.19976	5.20777
2.19883	5.46268
2.19789	5.37059
2.19696	5.17835
2.19603	5.14376
2.1951	5.20762
2.19417	5.30714
2.19325	5.38031
2.19232	5.40782
2.19139	5.38253
2.19047	5.36588
2.18954	5.31211
2.18862	5.16946
2.18769	5.17435
2.18677	5.29599
2.18585	5.31282
2.18493	5.23012
2.18401	5.25033
2.18309	5.09671
2.18217	5.03699
2.18125	5.28577
2.18033	5.35622
2.17942	5.28885
2.1785	5.11829
2.17759	5.08651
2.17667	5.2671
2.17576	5.40547
2.17485	5.34202
2.17393	5.32203
2.17302	5.44766
2.17211	5.37345
2.1712	5.31713
2.17029	5.35193
2.16939	5.18834
2.16848	5.02494
2.16757	5.00067
2.16667	5.10742
2.16576	5.25374
2.16486	5.46247
2.16395	5.54429
2.16305	5.57816
2.16215	5.39421
2.16125	5.29686
2.16035	5.33242
2.15945	5.28931
2.15855	5.30718
2.15765	5.13045
2.15675	5.09398
2.15586	5.26368
2.15496	5.37655
2.15406	5.23541
2.15317	5.17507
2.15228	5.27092
2.15138	5.33444
2.15049	5.30225
2.1496	5.2078
2.14871	5.2257
2.14782	5.46124
2.14693	5.64785
2.14604	5.42794
2.14515	5.27718
2.14427	5.4203
2.14338	5.39638
2.14249	5.25355
2.14161	5.10883
2.14072	5.1994
2.13984	5.2014
2.13896	5.28955
2.13808	5.25486
2.13719	5.22889
2.13631	5.36738
2.13543	5.28958
2.13455	5.06043
2.13368	4.91742
2.1328	5.00097
2.13192	5.3059
2.13105	5.46313
2.13017	5.42035
2.1293	5.30938
2.12842	5.29734
2.12755	5.24782
2.12668	5.25601
2.1258	5.16395
2.12493	5.19493
2.12406	5.46985
2.12319	5.47608
2.12232	5.09751
2.12145	4.88169
2.12059	4.89601
2.11972	5.18802
2.11885	5.48946
2.11799	5.43811
2.11712	5.23498
2.11626	5.2135
2.1154	5.37982
2.11453	5.44948
2.11367	5.36957
2.11281	5.36188
2.11195	5.1132
2.11109	5.16937
2.11023	5.47972
2.10937	5.36628
2.10851	5.27895
2.10766	5.30431
2.1068	5.25586
2.10594	5.06916
2.10509	5.16833
2.10423	5.16556
2.10338	5.05573
2.10253	5.20298
2.10168	5.09803
2.10082	5.09482
2.09997	5.43079
2.09912	5.69969
2.09827	5.66389
2.09742	5.23996
2.09658	5.36537
2.09573	5.53454
2.09488	5.36963
2.09404	5.37403
2.09319	5.22097
2.09235	5.06011
2.0915	5.01322
2.09066	5.00333
2.08982	5.08006
2.08897	5.41207
2.08813	5.39892
2.08729	5.09798
2.08645	5.10651
2.08561	5.40615
2.08477	5.57132
2.08394	5.31091
2.0831	5.2781
2.08226	5.57893
2.08143	5.61604
2.08059	5.2177
2.07976	4.94846
2.07892	4.86849
2.07809	5.0237
2.07726	5.24397
2.07643	5.42551
2.07559	5.42685
2.07476	5.17668
2.07393	5.20602
2.0731	5.18665
2.07228	5.04799
2.07145	5.26981
2.07062	5.5745
2.06979	5.1852
2.06897	4.76667
2.06814	5.42408
2.06732	5.03623
2.06649	4.60107
2.06567	5.02768
2.06485	5.02474
2.06403	5.09338
2.0632	5.63683
2.06238	5.37939
2.06156	5.00851
2.06074	4.9322
2.05993	5.21286
2.05911	5.52535
2.05829	5.49427
2.05747	5.45791
2.05666	5.38699
2.05584	5.18602
2.05503	5.22633
2.05421	5.2581
2.0534	5.26082
2.05259	5.22331
2.05177	5.0953
2.05096	5.26901
2.05015	5.30963
2.04934	5.26046
2.04853	5.40372
2.04772	5.42751
2.04691	5.31493
2.04611	5.39281
2.0453	5.5294
2.04449	5.36615
2.04369	5.18865
2.04288	5.27339
2.04208	5.46937
2.04127	5.5621
2.04047	5.63555
2.03967	5.41061
2.03886	5.20683
2.03806	5.14542
2.03726	5.14663
2.03646	5.11444
2.03566	5.09169
2.03486	5.12291
2.03407	5.30699
2.03327	5.32426
2.03247	5.27724
2.03167	5.38004
2.03088	5.37905
2.03008	5.32365
2.02929	5.52503
2.0285	5.67122
2.0277	5.55922
2.02691	5.37445
2.02612	5.37863
2.02533	5.35658
2.02453	5.46904
2.02374	5.56499
2.02295	5.38489
2.02217	5.31647
2.02138	5.45606
2.02059	5.2168
2.0198	4.97834
2.01902	5.01825
2.01823	5.18343
2.01744	5.39602
2.01666	5.30272
2.01588	5.25143
2.01509	5.22932
2.01431	5.20346
2.01353	5.32921
2.01275	5.35061
2.01196	5.3619
2.01118	5.4237
2.0104	5.28021
2.00963	5.17371
2.00885	5.36851
2.00807	5.36148
2.00729	5.30797
2.00651	5.36673
2.00574	5.45671
2.00496	5.50725
2.00419	5.48093
2.00341	5.44159
2.00264	5.3027
2.00187	5.50973
2.00109	5.51889
2.00032	5.38944
