Name: Cassiterite SnO_2
Type: Mineral
Class: Oxides
Subclass: 
Particle Size: 45-125um
Sample No.: O-3A
Owner: JPL
Wavelength range: IR
Origin: USA, South Dakota, Lawrence County, Tinton
Collected by Burminco
Description: 





Measurement: Hemispherical reflectance
First Column: X
Second Column: Y
X Units:  Wavelength (micrometers)
Y Units:  Reflectance (percent)
First X Value: 15.3853
Last X Value: 2.00032
Number of X Values: 2256
Additional information: o03aa.txt
 
15.3853	29.3879
15.3397	29.4216
15.2945	29.1928
15.2495	28.7194
15.2048	28.5738
15.1603	28.5826
15.1161	28.5573
15.0722	28.5277
15.0285	28.3568
14.9851	28.0554
14.9419	27.8453
14.8989	27.6157
14.8563	27.3663
14.8138	27.201
14.7716	27.1061
14.7296	27.122
14.6879	26.9598
14.6464	26.489
14.6052	26.4582
14.5641	26.7604
14.5233	27.0329
14.4828	27.0419
14.4424	27.0372
14.4023	26.9933
14.3624	26.8624
14.3227	26.9318
14.2833	26.9402
14.244	26.9217
14.205	26.876
14.1662	26.7592
14.1276	26.6359
14.0892	26.5051
14.051	26.3407
14.0131	26.3236
13.9753	26.2936
13.9377	26.102
13.9004	25.7913
13.8632	25.4985
13.8262	25.2593
13.7895	25.0242
13.7529	24.7938
13.7165	24.6195
13.6803	24.4647
13.6443	24.3039
13.6085	24.0377
13.5729	23.7114
13.5374	23.5231
13.5022	23.323
13.4671	22.9887
13.4322	22.7891
13.3975	22.5642
13.363	22.1839
13.3286	21.6892
13.2944	21.4036
13.2604	21.1057
13.2266	20.7872
13.193	20.6649
13.1595	20.4969
13.1262	20.2299
13.093	19.9922
13.06	19.6986
13.0272	19.5685
12.9946	19.5549
12.9621	19.4829
12.9298	19.2973
12.8976	19.0756
12.8656	18.9919
12.8337	19.0202
12.8021	19.0022
12.7705	18.872
12.7391	18.6992
12.7079	18.6606
12.6769	18.7117
12.6459	18.659
12.6152	18.5565
12.5845	18.533
12.5541	18.5878
12.5238	18.6991
12.4936	18.6426
12.4635	18.4283
12.4337	18.2405
12.4039	18.1846
12.3743	18.0045
12.3448	17.704
12.3155	17.5073
12.2863	17.4106
12.2573	17.3328
12.2284	17.3165
12.1996	17.2747
12.171	17.0477
12.1425	16.8419
12.1141	16.8454
12.0859	16.9767
12.0578	16.8971
12.0298	16.7214
12.0019	16.6172
11.9742	16.592
11.9466	16.6493
11.9192	16.708
11.8918	16.7571
11.8646	16.6503
11.8375	16.5803
11.8106	16.6226
11.7837	16.5299
11.757	16.4337
11.7304	16.4698
11.7039	16.5346
11.6776	16.4955
11.6513	16.4708
11.6252	16.3262
11.5992	16.1631
11.5733	16.083
11.5475	15.8982
11.5219	15.8505
11.4963	15.8806
11.4709	15.8079
11.4455	15.6161
11.4203	15.4978
11.3952	15.4578
11.3702	15.4151
11.3454	15.3112
11.3206	15.1888
11.2959	15.1423
11.2714	15.0753
11.2469	15.0186
11.2226	14.9117
11.1983	14.8486
11.1742	14.83
11.1502	14.8465
11.1263	14.8722
11.1024	14.8787
11.0787	14.8068
11.0551	14.752
11.0316	14.7557
11.0081	14.8112
10.9848	14.8581
10.9616	14.8505
10.9385	14.777
10.9154	14.6981
10.8925	14.6294
10.8697	14.6001
10.8469	14.6608
10.8243	14.7264
10.8017	14.6981
10.7793	14.6219
10.7569	14.5997
10.7346	14.5414
10.7125	14.5043
10.6904	14.6372
10.6684	14.5881
10.6465	14.4829
10.6247	14.5761
10.6029	14.6644
10.5813	14.6474
10.5597	14.6183
10.5383	14.6019
10.5169	14.554
10.4956	14.6103
10.4744	14.615
10.4533	14.4981
10.4323	14.5339
10.4113	14.6692
10.3904	14.7002
10.3697	14.6939
10.349	14.6073
10.3284	14.6322
10.3078	14.8088
10.2874	14.8222
10.267	14.6754
10.2467	14.6286
10.2265	14.7484
10.2064	14.8713
10.1863	14.8664
10.1663	14.7705
10.1464	14.7664
10.1266	14.7193
10.1069	14.77
10.0872	14.8448
10.0676	14.8138
10.0481	14.7577
10.0287	14.7617
10.0093	14.8561
9.99005	14.9558
9.97084	14.9382
9.95169	14.9344
9.93263	14.9665
9.91364	15.0497
9.89472	15.0438
9.87587	14.9374
9.8571	14.942
9.83839	14.9679
9.81976	15.0621
9.80119	15.2221
9.78271	15.1036
9.76428	15.0265
9.74592	15.1929
9.72764	15.3217
9.70943	15.3169
9.69128	15.3158
9.6732	15.3087
9.65518	15.4292
9.63724	15.5893
9.61935	15.536
9.60155	15.4396
9.5838	15.5422
9.56611	15.5437
9.5485	15.4438
9.53094	15.5153
9.51345	15.5552
9.49604	15.5337
9.47867	15.5478
9.46137	15.4248
9.44414	15.4368
9.42697	15.5448
9.40986	15.532
9.39281	15.54
9.37583	15.5815
9.35891	15.5409
9.34204	15.4445
9.32524	15.4828
9.3085	15.5076
9.29182	15.5445
9.27519	15.6483
9.25863	15.6323
9.24213	15.5246
9.22568	15.5776
9.2093	15.6056
9.19297	15.56
9.17669	15.5803
9.16048	15.5572
9.14433	15.4944
9.12823	15.4771
9.11218	15.6233
9.0962	15.6923
9.08027	15.6019
9.06439	15.4881
9.04858	15.5202
9.03281	15.5901
9.0171	15.5406
9.00145	15.4618
8.98585	15.4909
8.9703	15.5038
8.9548	15.4825
8.93937	15.4952
8.92398	15.4236
8.90865	15.3671
8.89337	15.4192
8.87814	15.3824
8.86296	15.3568
8.84784	15.331
8.83277	15.2652
8.81774	15.2605
8.80277	15.2039
8.78786	15.0678
8.77298	14.9645
8.75816	14.821
8.7434	14.8481
8.72868	15.004
8.714	15.1518
8.69938	15.0718
8.68481	14.8783
8.67029	14.8363
8.65581	14.822
8.64139	14.715
8.62701	14.5819
8.61268	14.596
8.5984	14.6064
8.58416	14.5487
8.56997	14.6333
8.55583	14.6361
8.54174	14.576
8.52769	14.5724
8.51368	14.6257
8.49973	14.664
8.48582	14.6551
8.47195	14.6232
8.45813	14.5787
8.44436	14.6351
8.43062	14.6279
8.41693	14.5406
8.4033	14.5848
8.3897	14.5758
8.37614	14.6436
8.36264	14.6603
8.34917	14.508
8.33574	14.3665
8.32236	14.3101
8.30903	14.4995
8.29573	14.5696
8.28248	14.5391
8.26927	14.5464
8.2561	14.5764
8.24298	14.4739
8.2299	14.4108
8.21685	14.5133
8.20385	14.4981
8.19089	14.2968
8.17797	14.2225
8.16509	14.3048
8.15225	14.3865
8.13946	14.2409
8.1267	14.1118
8.11398	14.1082
8.10131	14.0633
8.08867	14.0164
8.07606	13.9732
8.0635	13.9444
8.05099	13.9491
8.0385	13.9974
8.02606	13.959
8.01366	13.8028
8.00129	13.7573
7.98896	13.7502
7.97667	13.6743
7.96442	13.716
7.9522	13.7806
7.94002	13.7332
7.92788	13.6917
7.91578	13.666
7.90371	13.6889
7.89168	13.7206
7.87969	13.6334
7.86773	13.5774
7.85581	13.6136
7.84392	13.6224
7.83207	13.5886
7.82026	13.59
7.80849	13.5973
7.79674	13.562
7.78503	13.5775
7.77337	13.5937
7.76173	13.5373
7.75012	13.4337
7.73856	13.3506
7.72703	13.3899
7.71553	13.5196
7.70406	13.6
7.69263	13.5921
7.68123	13.5774
7.66987	13.5157
7.65855	13.4172
7.64725	13.4094
7.63598	13.4304
7.62475	13.4838
7.61356	13.5222
7.60239	13.5067
7.59126	13.4804
7.58017	13.5156
7.5691	13.5598
7.55806	13.4795
7.54707	13.4657
7.5361	13.5312
7.52516	13.5714
7.51425	13.5591
7.50338	13.5145
7.49253	13.5069
7.48172	13.5348
7.47094	13.4508
7.46019	13.373
7.44947	13.4113
7.43879	13.4552
7.42813	13.4716
7.4175	13.5301
7.4069	13.5764
7.39634	13.5576
7.3858	13.4952
7.37529	13.4697
7.36482	13.4891
7.35437	13.4879
7.34396	13.4563
7.33357	13.4707
7.32321	13.4844
7.31288	13.5209
7.30258	13.4833
7.29231	13.5028
7.28207	13.5414
7.27185	13.4736
7.26167	13.3814
7.25152	13.4432
7.24139	13.5322
7.23129	13.4988
7.22122	13.3918
7.21117	13.3984
7.20116	13.3581
7.19117	13.3819
7.18121	13.4459
7.17128	13.4523
7.16137	13.4626
7.1515	13.4341
7.14164	13.4344
7.13182	13.3853
7.12203	13.3224
7.11225	13.3118
7.10251	13.3423
7.0928	13.3281
7.08311	13.2842
7.07344	13.2679
7.06381	13.2431
7.0542	13.2468
7.04461	13.2572
7.03506	13.2445
7.02552	13.2627
7.01601	13.1919
7.00653	13.1984
6.99708	13.2378
6.98765	13.1811
6.97824	13.1536
6.96886	13.1738
6.95951	13.1818
6.95018	13.1515
6.94087	13.127
6.9316	13.0916
6.92234	13.0649
6.91311	13.0778
6.90391	13.1325
6.89473	13.1433
6.88557	13.096
6.87644	13.0644
6.86733	13.2046
6.85824	13.1879
6.84918	13.0245
6.84015	12.9956
6.83114	13.0078
6.82215	13.0179
6.81319	13.0376
6.80424	12.9989
6.79532	13.0026
6.78643	13.0765
6.77756	12.9986
6.76871	12.9181
6.75989	12.8263
6.75109	12.787
6.74231	12.8324
6.73355	12.8345
6.72482	12.8486
6.71611	12.9346
6.70742	12.9213
6.69875	12.8431
6.69011	12.8603
6.68149	12.8655
6.67289	12.8403
6.66431	12.8474
6.65576	12.8351
6.64722	12.8893
6.63871	12.9464
6.63022	12.7209
6.62175	12.594
6.61331	12.6757
6.60488	12.7647
6.59648	12.7794
6.5881	12.7238
6.57974	12.7565
6.5714	12.8103
6.56308	12.6655
6.55478	12.537
6.54651	12.4895
6.53825	12.4696
6.53001	12.5501
6.5218	12.6317
6.51361	12.5976
6.50544	12.6759
6.49729	12.8181
6.48915	12.7202
6.48104	12.5891
6.47295	12.5286
6.46488	12.4301
6.45683	12.391
6.4488	12.4405
6.44079	12.499
6.4328	12.5372
6.42482	12.614
6.41687	12.7158
6.40894	12.5919
6.40103	12.4612
6.39314	12.4309
6.38526	12.4044
6.37741	12.4261
6.36957	12.3817
6.36176	12.307
6.35396	12.3463
6.34618	12.4258
6.33843	12.3985
6.33069	12.3377
6.32297	12.2253
6.31527	12.205
6.30758	12.2572
6.29992	12.2485
6.29227	12.2274
6.28465	12.249
6.27704	12.279
6.26945	12.2998
6.26188	12.2864
6.25432	12.2434
6.24679	12.2556
6.23927	12.263
6.23177	12.1864
6.22429	12.1735
6.21683	12.2051
6.20938	12.1848
6.20195	12.1185
6.19454	12.0433
6.18715	12.0248
6.17978	11.9848
6.17242	12.0446
6.16508	12.1257
6.15776	12.1456
6.15045	12.072
6.14317	12.019
6.1359	11.995
6.12864	11.9693
6.12141	11.9988
6.11419	12.0559
6.10699	12.0124
6.0998	12.0127
6.09263	11.9385
6.08549	11.8751
6.07835	11.8957
6.07123	11.9244
6.06413	11.8143
6.05705	11.7945
6.04998	11.9107
6.04293	11.904
6.0359	11.894
6.02888	11.8162
6.02187	11.7937
6.01489	11.7968
6.00792	11.7396
6.00096	11.649
5.99403	11.6706
5.98711	11.7374
5.9802	11.6712
5.97331	11.6349
5.96644	11.6098
5.95958	11.4789
5.95274	11.4262
5.94591	11.4673
5.9391	11.5588
5.9323	11.4628
5.92552	11.299
5.91876	11.2461
5.91201	11.2439
5.90528	11.1976
5.89856	11.2695
5.89186	11.2346
5.88517	11.2576
5.8785	11.3342
5.87184	11.2555
5.8652	11.2339
5.85857	11.1686
5.85196	11.0788
5.84536	11.0892
5.83878	11.1372
5.83221	11.2443
5.82566	11.2784
5.81912	11.3017
5.81259	11.2055
5.80608	11.1301
5.79959	11.1177
5.79311	11.1248
5.78665	11.2029
5.78019	11.2118
5.77376	11.215
5.76734	11.3177
5.76093	11.3268
5.75453	11.3174
5.74815	11.3138
5.74179	11.294
5.73543	11.3342
5.7291	11.338
5.72277	11.2389
5.71646	11.2814
5.71017	11.4221
5.70389	11.374
5.69762	11.312
5.69136	11.3468
5.68513	11.4175
5.6789	11.4888
5.67268	11.5134
5.66648	11.5065
5.6603	11.5686
5.65413	11.5883
5.64797	11.6222
5.64182	11.6412
5.63569	11.5961
5.62957	11.6044
5.62347	11.6535
5.61737	11.678
5.61129	11.6372
5.60522	11.5803
5.59917	11.6172
5.59313	11.6149
5.5871	11.7033
5.58109	11.7419
5.57509	11.6871
5.5691	11.6331
5.56312	11.5928
5.55716	11.5904
5.55121	11.6123
5.54528	11.648
5.53935	11.6521
5.53344	11.6021
5.52754	11.6151
5.52166	11.6539
5.51578	11.6387
5.50992	11.6409
5.50407	11.6781
5.49823	11.6382
5.49241	11.5732
5.4866	11.5223
5.4808	11.592
5.47501	11.6697
5.46923	11.6781
5.46347	11.5783
5.45772	11.4737
5.45198	11.4963
5.44625	11.4913
5.44054	11.4875
5.43484	11.4956
5.42914	11.5172
5.42347	11.4923
5.4178	11.4712
5.41214	11.4058
5.4065	11.3808
5.40087	11.4081
5.39525	11.3607
5.38964	11.2698
5.38404	11.2375
5.37846	11.2661
5.37288	11.307
5.36732	11.2687
5.36177	11.2312
5.35623	11.2753
5.35071	11.2762
5.34519	11.1907
5.33968	11.1874
5.33419	11.2073
5.32871	11.1903
5.32324	11.1485
5.31778	11.0784
5.31233	11.0554
5.30689	11.118
5.30147	11.1671
5.29605	11.1346
5.29065	11.0652
5.28525	11.0548
5.27987	11.0773
5.2745	11.0031
5.26914	10.9982
5.26379	11.0895
5.25845	11.1136
5.25312	11.0873
5.24781	11.092
5.2425	11.0847
5.23721	11.0254
5.23192	11.0326
5.22665	11.0931
5.22138	11.0613
5.21613	11.042
5.21089	10.984
5.20566	10.9496
5.20044	10.9575
5.19522	10.9732
5.19002	10.9641
5.18483	10.9928
5.17965	10.8838
5.17448	10.823
5.16933	10.8476
5.16418	10.8516
5.15904	10.8328
5.15391	10.8337
5.14879	10.8456
5.14368	10.7912
5.13859	10.7124
5.1335	10.777
5.12842	10.8043
5.12335	10.7197
5.1183	10.6878
5.11325	10.7349
5.10821	10.752
5.10318	10.7149
5.09817	10.7272
5.09316	10.6043
5.08816	10.5518
5.08317	10.6296
5.07819	10.6068
5.07322	10.577
5.06826	10.5093
5.06331	10.4762
5.05837	10.4677
5.05344	10.52
5.04852	10.5948
5.04361	10.5216
5.03871	10.4172
5.03382	10.4844
5.02894	10.5036
5.02406	10.3477
5.0192	10.3015
5.01435	10.2764
5.0095	10.2629
5.00467	10.3315
4.99984	10.3891
4.99502	10.4209
4.99021	10.3539
4.98542	10.2791
4.98063	10.2867
4.97585	10.2548
4.97108	10.275
4.96632	10.3131
4.96156	10.3064
4.95682	10.3178
4.95209	10.3377
4.94736	10.3019
4.94264	10.2827
4.93794	10.2739
4.93324	10.2586
4.92855	10.1946
4.92387	10.1561
4.9192	10.1778
4.91453	10.1099
4.90988	10.0486
4.90524	10.1391
4.9006	10.2176
4.89597	10.2087
4.89135	10.1682
4.88674	10.1562
4.88214	10.2183
4.87755	10.2385
4.87296	10.2087
4.86839	10.1653
4.86382	10.078
4.85926	10.0981
4.85471	10.098
4.85017	10.0421
4.84564	10.0156
4.84111	10.0727
4.8366	10.107
4.83209	10.0486
4.82759	9.9989
4.8231	9.97145
4.81862	9.9773
4.81415	9.93515
4.80968	9.9007
4.80522	9.91569
4.80077	9.93316
4.79633	9.93085
4.7919	9.94692
4.78747	9.88107
4.78306	9.8381
4.77865	9.82459
4.77425	9.88177
4.76986	9.90462
4.76547	9.88178
4.7611	9.87579
4.75673	9.83207
4.75237	9.80681
4.74802	9.79274
4.74367	9.79017
4.73934	9.80114
4.73501	9.77264
4.73069	9.74631
4.72638	9.78311
4.72207	9.81721
4.71777	9.75936
4.71348	9.70511
4.7092	9.67956
4.70493	9.63822
4.70066	9.67541
4.69641	9.68309
4.69216	9.58495
4.68791	9.56418
4.68368	9.68618
4.67945	9.72741
4.67523	9.5855
4.67102	9.53679
4.66682	9.59106
4.66262	9.54821
4.65843	9.44951
4.65425	9.43328
4.65007	9.45915
4.64591	9.4923
4.64175	9.57454
4.6376	9.55141
4.63345	9.50151
4.62932	9.47448
4.62519	9.45881
4.62106	9.41911
4.61695	9.38095
4.61284	9.42838
4.60874	9.37206
4.60465	9.33509
4.60056	9.37474
4.59648	9.41705
4.59241	9.4097
4.58835	9.38144
4.58429	9.35006
4.58024	9.27274
4.5762	9.22784
4.57216	9.26329
4.56814	9.2874
4.56411	9.24117
4.5601	9.20376
4.55609	9.2421
4.55209	9.26468
4.5481	9.23394
4.54411	9.17559
4.54013	9.12763
4.53616	9.13612
4.5322	9.15384
4.52824	9.08871
4.52429	9.08628
4.52034	9.10802
4.51641	9.08509
4.51247	9.06691
4.50855	9.03194
4.50463	9.0155
4.50072	9.1016
4.49682	9.1585
4.49292	9.15455
4.48903	9.03777
4.48515	8.95077
4.48127	9.01085
4.4774	9.05464
4.47354	9.04485
4.46968	9.01356
4.46584	9.01124
4.46199	8.96792
4.45815	8.94515
4.45432	8.9132
4.4505	8.91888
4.44668	8.92653
4.44287	8.92041
4.43907	8.8301
4.43527	8.82963
4.43148	8.90544
4.4277	8.92038
4.42392	8.89504
4.42015	8.89436
4.41638	8.88302
4.41262	8.88098
4.40887	8.85246
4.40513	8.7674
4.40139	8.71101
4.39765	8.75643
4.39393	8.74344
4.39021	8.70086
4.38649	8.65813
4.38278	8.6821
4.37908	8.74062
4.37539	8.74348
4.3717	8.73766
4.36801	8.64856
4.36434	8.58133
4.36067	8.61651
4.357	8.63747
4.35335	8.65014
4.34969	8.63448
4.34605	8.57367
4.34241	8.55882
4.33877	8.58764
4.33514	8.60452
4.33152	8.59989
4.32791	8.60658
4.3243	8.62626
4.32069	8.58783
4.3171	8.50744
4.31351	8.39103
4.30992	8.39674
4.30634	8.4524
4.30277	8.43292
4.2992	8.42959
4.29564	8.3514
4.29208	8.22481
4.28853	8.28104
4.28499	8.33278
4.28145	8.34218
4.27792	8.40306
4.27439	8.34571
4.27087	8.26776
4.26735	8.2413
4.26384	8.25377
4.26034	8.2605
4.25684	8.29543
4.25335	8.30119
4.24986	8.29969
4.24638	8.28426
4.24291	8.19152
4.23944	8.17037
4.23598	8.11142
4.23252	8.08767
4.22906	8.14591
4.22562	8.2483
4.22218	8.26908
4.21874	8.189
4.21531	8.15214
4.21189	8.16289
4.20847	8.1541
4.20506	8.10901
4.20165	8.05645
4.19825	8.08783
4.19485	8.18608
4.19146	8.24978
4.18807	8.19143
4.18469	8.13809
4.18132	8.1383
4.17795	8.17174
4.17458	8.16415
4.17123	8.0915
4.16787	8.0443
4.16453	8.06848
4.16118	8.05041
4.15785	8.05273
4.15451	8.07419
4.15119	8.01923
4.14787	8.02797
4.14455	8.04133
4.14124	8.02837
4.13794	8.04675
4.13464	8.0777
4.13134	7.99498
4.12805	7.91889
4.12477	7.96448
4.12149	7.95504
4.11822	7.93634
4.11495	7.9548
4.11168	7.94336
4.10843	7.92355
4.10517	7.87816
4.10192	7.86715
4.09868	7.92893
4.09545	7.94269
4.09221	7.84514
4.08899	7.83176
4.08576	7.86894
4.08255	7.85723
4.07933	7.85049
4.07613	7.9014
4.07292	7.85334
4.06973	7.7471
4.06654	7.74227
4.06335	7.8215
4.06017	7.80025
4.05699	7.80265
4.05382	7.86637
4.05065	7.80145
4.04749	7.72099
4.04433	7.73276
4.04118	7.75147
4.03803	7.71233
4.03489	7.76047
4.03175	7.81933
4.02862	7.76189
4.02549	7.66931
4.02237	7.63638
4.01925	7.68927
4.01614	7.64507
4.01303	7.5712
4.00993	7.55542
4.00683	7.59908
4.00373	7.72364
4.00064	7.78285
3.99756	7.75546
3.99448	7.74999
3.9914	7.68965
3.98833	7.59499
3.98527	7.5865
3.98221	7.55023
3.97915	7.55634
3.9761	7.56465
3.97305	7.48346
3.97001	7.4608
3.96697	7.4587
3.96394	7.49807
3.96091	7.51594
3.95789	7.55341
3.95487	7.6096
3.95186	7.59024
3.94885	7.54945
3.94584	7.50673
3.94284	7.44394
3.93984	7.43649
3.93685	7.41956
3.93386	7.30305
3.93088	7.30232
3.9279	7.43904
3.92493	7.46728
3.92196	7.35591
3.919	7.34961
3.91604	7.37694
3.91308	7.37876
3.91013	7.36086
3.90718	7.36779
3.90424	7.40284
3.9013	7.40897
3.89837	7.32329
3.89544	7.25175
3.89252	7.33139
3.8896	7.359
3.88668	7.30777
3.88377	7.28847
3.88086	7.2561
3.87796	7.30907
3.87506	7.34976
3.87217	7.35027
3.86928	7.24857
3.86639	7.18597
3.86351	7.20951
3.86064	7.23887
3.85776	7.29077
3.8549	7.26365
3.85203	7.15124
3.84917	7.15852
3.84631	7.20402
3.84346	7.12659
3.84062	7.06083
3.83777	7.11152
3.83494	7.14501
3.8321	7.16418
3.82927	7.17037
3.82644	7.12862
3.82362	7.0821
3.82081	7.12072
3.81799	7.23417
3.81518	7.2411
3.81238	7.26477
3.80958	7.20495
3.80678	7.08943
3.80399	7.06623
3.8012	7.12562
3.79841	7.19079
3.79563	7.13808
3.79286	7.15344
3.79008	7.11315
3.78731	7.02122
3.78455	6.98371
3.78179	7.12655
3.77903	7.18705
3.77628	7.16485
3.77353	7.11088
3.77079	7.0537
3.76805	7.02835
3.76531	6.99636
3.76258	6.98095
3.75985	6.96957
3.75713	7.05104
3.7544	7.04879
3.75169	6.95275
3.74898	6.9405
3.74627	6.96549
3.74356	7.02923
3.74086	7.11468
3.73816	7.03492
3.73547	6.93097
3.73278	6.85884
3.7301	6.93221
3.72741	6.95635
3.72474	6.84537
3.72206	6.90024
3.71939	6.94784
3.71673	6.87663
3.71406	6.9033
3.71141	6.92816
3.70875	6.76503
3.7061	6.7415
3.70345	6.83444
3.70081	6.86542
3.69817	6.84706
3.69553	6.81336
3.6929	6.83298
3.69027	6.86502
3.68765	6.88582
3.68503	6.87249
3.68241	6.86386
3.6798	6.76755
3.67719	6.75044
3.67458	6.82509
3.67198	6.80822
3.66938	6.80557
3.66678	6.85101
3.66419	6.80219
3.66161	6.73702
3.65902	6.76349
3.65644	6.78735
3.65387	6.87373
3.65129	6.90191
3.64872	6.81722
3.64616	6.81767
3.64359	6.81742
3.64103	6.76947
3.63848	6.71428
3.63593	6.77002
3.63338	6.79961
3.63084	6.83037
3.6283	6.7969
3.62576	6.69295
3.62322	6.69764
3.62069	6.75764
3.61817	6.72075
3.61564	6.70553
3.61312	6.72445
3.61061	6.70802
3.6081	6.68835
3.60559	6.78248
3.60308	6.76043
3.60058	6.74653
3.59808	6.75475
3.59558	6.62468
3.59309	6.54299
3.59061	6.57338
3.58812	6.55123
3.58564	6.5794
3.58316	6.76056
3.58069	6.88266
3.57822	6.79941
3.57575	6.64885
3.57328	6.59047
3.57082	6.51471
3.56836	6.56001
3.56591	6.57822
3.56346	6.58216
3.56101	6.61647
3.55857	6.59748
3.55613	6.59677
3.55369	6.53008
3.55126	6.42013
3.54883	6.50391
3.5464	6.58514
3.54397	6.57037
3.54155	6.47295
3.53914	6.46327
3.53672	6.46194
3.53431	6.49858
3.5319	6.55513
3.5295	6.59634
3.5271	6.61547
3.5247	6.51381
3.52231	6.53545
3.51991	6.51865
3.51753	6.42618
3.51514	6.47106
3.51276	6.54737
3.51038	6.49895
3.50801	6.50205
3.50563	6.56394
3.50327	6.57798
3.5009	6.46722
3.49854	6.36311
3.49618	6.39638
3.49382	6.46507
3.49147	6.44193
3.48912	6.45229
3.48677	6.46886
3.48443	6.44032
3.48209	6.35256
3.47975	6.37184
3.47742	6.41146
3.47509	6.43984
3.47276	6.43063
3.47044	6.38342
3.46812	6.31249
3.4658	6.28604
3.46348	6.35982
3.46117	6.44317
3.45886	6.47131
3.45656	6.50189
3.45425	6.40345
3.45195	6.28855
3.44966	6.34341
3.44736	6.47175
3.44507	6.47909
3.44279	6.37591
3.4405	6.27527
3.43822	6.27588
3.43594	6.25961
3.43367	6.3014
3.43139	6.36555
3.42912	6.39947
3.42686	6.43457
3.42459	6.35344
3.42233	6.36274
3.42007	6.40586
3.41782	6.2991
3.41557	6.28045
3.41332	6.28016
3.41108	6.19659
3.40883	6.26854
3.40659	6.33098
3.40435	6.31954
3.40212	6.31412
3.39989	6.25009
3.39766	6.23362
3.39544	6.28913
3.39322	6.25865
3.391	6.17783
3.38878	6.22729
3.38657	6.30207
3.38436	6.29814
3.38215	6.18083
3.37994	6.13592
3.37774	6.15318
3.37554	6.1654
3.37335	6.10339
3.37115	6.04248
3.36896	6.1561
3.36678	6.19379
3.36459	6.14213
3.36241	6.08879
3.36023	6.10097
3.35805	6.0511
3.35588	6.02188
3.35371	6.10815
3.35154	6.09239
3.34938	6.05083
3.34721	6.05302
3.34505	6.10966
3.3429	6.08981
3.34074	6.09814
3.33859	6.12583
3.33644	6.08343
3.3343	6.05713
3.33215	6.04535
3.33001	6.06649
3.32788	6.07418
3.32574	6.03224
3.32361	5.91972
3.32148	5.94785
3.31936	5.99144
3.31723	6.11468
3.31511	6.17166
3.31299	6.12054
3.31088	6.02723
3.30876	5.88712
3.30665	5.84943
3.30455	5.97483
3.30244	6.00318
3.30034	5.9488
3.29824	5.97018
3.29614	6.01105
3.29405	6.03467
3.29196	6.02303
3.28987	6.00007
3.28778	5.82005
3.2857	5.72475
3.28362	5.80904
3.28154	5.84935
3.27946	5.92346
3.27739	6.06061
3.27532	6.03419
3.27325	5.9068
3.27119	5.9292
3.26913	5.98845
3.26707	5.98258
3.26501	6.02873
3.26295	5.98846
3.2609	5.90536
3.25885	5.84726
3.2568	5.80026
3.25476	5.79318
3.25272	5.74744
3.25068	5.74904
3.24864	5.74776
3.24661	5.73529
3.24458	5.82207
3.24255	5.90578
3.24052	5.90002
3.2385	5.81981
3.23648	5.77733
3.23446	5.78434
3.23244	5.80159
3.23043	5.74675
3.22841	5.75059
3.2264	5.77587
3.2244	5.78536
3.22239	5.71005
3.22039	5.6496
3.21839	5.61575
3.2164	5.66917
3.2144	5.69765
3.21241	5.66519
3.21042	5.62288
3.20844	5.61204
3.20645	5.62788
3.20447	5.66415
3.20249	5.70916
3.20051	5.66993
3.19854	5.71261
3.19657	5.63364
3.1946	5.60007
3.19263	5.69579
3.19067	5.67499
3.1887	5.57824
3.18674	5.49313
3.18479	5.46034
3.18283	5.48799
3.18088	5.40204
3.17893	5.43378
3.17698	5.58905
3.17504	5.65889
3.17309	5.57907
3.17115	5.48013
3.16921	5.47315
3.16728	5.43483
3.16534	5.41895
3.16341	5.43991
3.16148	5.46177
3.15956	5.40112
3.15763	5.36651
3.15571	5.32204
3.15379	5.3504
3.15187	5.49497
3.14996	5.55764
3.14805	5.45434
3.14614	5.45466
3.14423	5.52162
3.14232	5.52823
3.14042	5.47252
3.13852	5.4281
3.13662	5.38129
3.13472	5.36748
3.13283	5.36581
3.13094	5.20984
3.12905	5.07463
3.12716	5.19792
3.12528	5.35702
3.12339	5.36982
3.12151	5.33514
3.11964	5.37586
3.11776	5.34704
3.11589	5.25591
3.11401	5.24156
3.11214	5.22908
3.11028	5.27072
3.10841	5.30196
3.10655	5.34889
3.10469	5.3875
3.10283	5.3414
3.10098	5.31859
3.09912	5.16688
3.09727	5.15297
3.09542	5.26188
3.09358	5.2
3.09173	5.1717
3.08989	5.13092
3.08805	5.07644
3.08621	5.12453
3.08437	5.22483
3.08254	5.21787
3.08071	5.14457
3.07888	5.08672
3.07705	5.1428
3.07523	5.07177
3.0734	5.02098
3.07158	5.0807
3.06977	5.17691
3.06795	5.15478
3.06613	5.10734
3.06432	5.10136
3.06251	5.07113
3.0607	5.1366
3.0589	5.14089
3.0571	5.08869
3.05529	5.10601
3.05349	5.07962
3.0517	5.04827
3.0499	5.04586
3.04811	5.14101
3.04632	5.12225
3.04453	5.01434
3.04274	5.00946
3.04096	5.03892
3.03918	5.03719
3.0374	4.96969
3.03562	4.93613
3.03384	5.00064
3.03207	5.07025
3.03029	5.01654
3.02852	4.96585
3.02676	4.9791
3.02499	4.95825
3.02323	4.85528
3.02146	4.79081
3.0197	4.97242
3.01795	5.02211
3.01619	4.91768
3.01444	4.92948
3.01269	4.80633
3.01094	4.78425
3.00919	4.88859
3.00744	4.82053
3.0057	4.75746
3.00396	4.90947
3.00222	4.88026
3.00048	4.75124
2.99875	4.76313
2.99701	4.85117
2.99528	4.93362
2.99355	4.8376
2.99183	4.78618
2.9901	4.915
2.98838	4.94675
2.98666	4.92857
2.98494	4.9181
2.98322	4.89562
2.9815	4.88355
2.97979	4.90405
2.97808	4.77888
2.97637	4.62059
2.97466	4.80452
2.97295	4.78785
2.97125	4.67113
2.96955	4.73565
2.96785	4.7833
2.96615	4.72674
2.96446	4.74535
2.96276	4.87286
2.96107	4.89097
2.95938	4.77584
2.95769	4.58836
2.95601	4.51431
2.95432	4.74016
2.95264	4.92595
2.95096	4.7949
2.94928	4.72335
2.9476	4.71922
2.94593	4.64319
2.94425	4.70933
2.94258	4.66633
2.94092	4.6191
2.93925	4.61455
2.93758	4.56055
2.93592	4.60361
2.93426	4.59936
2.9326	4.56102
2.93094	4.51801
2.92928	4.51336
2.92763	4.60151
2.92598	4.63597
2.92433	4.62915
2.92268	4.62617
2.92103	4.64478
2.91939	4.62952
2.91775	4.53078
2.9161	4.38076
2.91447	4.34021
2.91283	4.45802
2.91119	4.64417
2.90956	4.76263
2.90793	4.75579
2.9063	4.60945
2.90467	4.58454
2.90304	4.61821
2.90142	4.46218
2.89979	4.31124
2.89817	4.47338
2.89656	4.573
2.89494	4.58899
2.89332	4.57434
2.89171	4.53831
2.8901	4.64812
2.88849	4.7392
2.88688	4.69054
2.88527	4.63217
2.88367	4.66737
2.88206	4.68588
2.88046	4.63127
2.87886	4.55117
2.87727	4.64116
2.87567	4.66289
2.87408	4.61171
2.87248	4.71409
2.87089	4.8188
2.8693	4.88168
2.86772	4.8918
2.86613	4.81125
2.86455	4.77503
2.86297	4.88588
2.86139	4.98057
2.85981	4.95679
2.85823	4.86521
2.85666	4.8357
2.85508	4.8591
2.85351	4.96503
2.85194	5.0235
2.85038	5.07625
2.84881	5.14762
2.84724	5.22385
2.84568	5.047
2.84412	5.01505
2.84256	5.19849
2.841	5.20509
2.83945	5.27108
2.83789	5.48917
2.83634	5.42219
2.83479	5.33676
2.83324	5.34166
2.83169	5.42524
2.83015	5.47033
2.82861	5.31188
2.82706	5.23251
2.82552	5.32425
2.82398	5.37035
2.82245	5.43059
2.82091	5.50057
2.81938	5.51449
2.81784	5.4969
2.81631	5.44035
2.81479	5.48675
2.81326	5.55393
2.81173	5.48799
2.81021	5.64135
2.80869	5.70286
2.80716	5.65364
2.80565	5.65057
2.80413	5.77594
2.80261	5.70962
2.8011	5.59893
2.79959	5.7085
2.79808	5.73382
2.79657	5.68617
2.79506	5.69546
2.79355	5.69216
2.79205	5.76175
2.79055	5.84917
2.78904	5.83936
2.78754	5.7283
2.78605	5.52976
2.78455	5.70705
2.78306	5.78676
2.78156	5.70293
2.78007	5.61622
2.77858	5.75461
2.77709	5.90858
2.77561	5.74187
2.77412	5.81259
2.77264	5.9052
2.77116	5.7583
2.76968	5.47716
2.7682	5.7269
2.76672	5.89762
2.76524	5.85105
2.76377	5.92474
2.7623	5.99224
2.76083	5.87649
2.75936	5.9119
2.75789	5.99882
2.75642	6.00864
2.75496	5.92823
2.7535	5.75032
2.75203	5.7449
2.75057	5.96833
2.74912	6.12017
2.74766	6.12917
2.7462	6.02927
2.74475	5.84247
2.7433	5.94489
2.74185	6.05043
2.7404	6.044
2.73895	6.07858
2.7375	6.10501
2.73606	6.19124
2.73462	6.28839
2.73318	6.18796
2.73174	6.16433
2.7303	6.16637
2.72886	6.16424
2.72742	6.05929
2.72599	6.1973
2.72456	6.28054
2.72313	6.27547
2.7217	6.46469
2.72027	6.48124
2.71884	6.34706
2.71742	6.30369
2.71599	6.22625
2.71457	6.18279
2.71315	6.32109
2.71173	6.51419
2.71032	6.57646
2.7089	6.62102
2.70748	6.50659
2.70607	6.43804
2.70466	6.67753
2.70325	6.6769
2.70184	6.50294
2.70043	6.45934
2.69903	6.48615
2.69762	6.44074
2.69622	6.52881
2.69482	6.54584
2.69342	6.5101
2.69202	6.60452
2.69062	6.67156
2.68923	6.69404
2.68783	6.73343
2.68644	6.7908
2.68505	6.7662
2.68366	6.70552
2.68227	6.67704
2.68089	6.65624
2.6795	6.76385
2.67812	6.94568
2.67673	6.98536
2.67535	6.85728
2.67397	6.72898
2.6726	6.66316
2.67122	6.7795
2.66984	6.96347
2.66847	6.97058
2.6671	6.80481
2.66572	6.68712
2.66435	6.80375
2.66299	6.89303
2.66162	6.85678
2.66025	6.83739
2.65889	6.85104
2.65753	6.86861
2.65616	6.82973
2.65481	6.75851
2.65345	6.69556
2.65209	6.68919
2.65073	6.75783
2.64938	6.7443
2.64803	6.71583
2.64667	6.78761
2.64532	6.80248
2.64397	6.7646
2.64263	6.8058
2.64128	6.77449
2.63994	6.75082
2.63859	6.75506
2.63725	6.81168
2.63591	6.94618
2.63457	6.99092
2.63323	6.91332
2.6319	6.90652
2.63056	6.89436
2.62923	6.83716
2.62789	6.85911
2.62656	6.79424
2.62523	6.76101
2.6239	6.7473
2.62258	6.73525
2.62125	6.7771
2.61993	6.86965
2.6186	6.78394
2.61728	6.7985
2.61596	6.88436
2.61464	6.93926
2.61332	6.92776
2.61201	6.86814
2.61069	6.95613
2.60938	6.95804
2.60807	6.93786
2.60675	6.92868
2.60544	6.84318
2.60414	6.78184
2.60283	6.73104
2.60152	6.67114
2.60022	6.78148
2.59891	6.84894
2.59761	6.90921
2.59631	6.93554
2.59501	6.86806
2.59371	6.88638
2.59242	6.84871
2.59112	6.9526
2.58983	6.85074
2.58853	6.8413
2.58724	6.92534
2.58595	6.9373
2.58466	6.88072
2.58338	6.90618
2.58209	6.86724
2.5808	6.87284
2.57952	6.87544
2.57824	6.85221
2.57695	6.86953
2.57567	6.89008
2.5744	6.89439
2.57312	6.91764
2.57184	6.95817
2.57057	6.98857
2.56929	6.88136
2.56802	6.80842
2.56675	6.85666
2.56548	6.92805
2.56421	6.87246
2.56294	6.88419
2.56168	6.91583
2.56041	6.8412
2.55915	6.8431
2.55789	6.84587
2.55662	6.87797
2.55536	6.90053
2.5541	6.95378
2.55285	6.97299
2.55159	6.98877
2.55034	6.98796
2.54908	6.79252
2.54783	6.73702
2.54658	6.88547
2.54533	6.97947
2.54408	6.83338
2.54283	6.76368
2.54159	6.82019
2.54034	7.03817
2.5391	6.9952
2.53785	6.83315
2.53661	6.97413
2.53537	7.00337
2.53413	6.81479
2.53289	6.81168
2.53166	7.03453
2.53042	7.1388
2.52919	7.05019
2.52795	6.98201
2.52672	6.91254
2.52549	6.79691
2.52426	6.68044
2.52303	6.68833
2.52181	6.82652
2.52058	6.96309
2.51936	7.02125
2.51813	6.97542
2.51691	6.98278
2.51569	7.03845
2.51447	6.98936
2.51325	7.00793
2.51203	6.98322
2.51082	7.06986
2.5096	7.04997
2.50839	7.10621
2.50717	7.09994
2.50596	6.9563
2.50475	6.97089
2.50354	6.96155
2.50233	6.94776
2.50113	6.86034
2.49992	6.89075
2.49872	6.98154
2.49751	6.92238
2.49631	6.84418
2.49511	6.93521
2.49391	6.85997
2.49271	6.92683
2.49151	7.02201
2.49031	6.99578
2.48912	7.06776
2.48792	7.03641
2.48673	6.94521
2.48554	6.97058
2.48435	7.04544
2.48316	6.91971
2.48197	6.88345
2.48078	6.87719
2.4796	6.88149
2.47841	6.94537
2.47723	7.04588
2.47604	6.94039
2.47486	6.85351
2.47368	6.87521
2.4725	6.86942
2.47132	6.82309
2.47014	6.85204
2.46897	6.96455
2.46779	6.87175
2.46662	6.90486
2.46545	6.98597
2.46427	6.97084
2.4631	7.01482
2.46193	7.01625
2.46077	7.11822
2.4596	7.14871
2.45843	7.01149
2.45727	6.84673
2.4561	6.84943
2.45494	6.91208
2.45378	7.02078
2.45262	7.05268
2.45146	7.06374
2.4503	7.02371
2.44914	6.98292
2.44799	7.00665
2.44683	6.99533
2.44568	6.86883
2.44452	6.85922
2.44337	6.91172
2.44222	6.95884
2.44107	6.99273
2.43992	7.00789
2.43877	6.95841
2.43763	6.92746
2.43648	6.98677
2.43534	7.05762
2.43419	7.01617
2.43305	7.13117
2.43191	7.17517
2.43077	6.97861
2.42963	6.96005
2.42849	7.14431
2.42736	7.18923
2.42622	7.08617
2.42509	6.84158
2.42395	6.74655
2.42282	6.79913
2.42169	6.77386
2.42056	6.81083
2.41943	7.07321
2.4183	7.15488
2.41717	6.99869
2.41605	6.91874
2.41492	7.10024
2.4138	7.21411
2.41267	7.10615
2.41155	6.90367
2.41043	6.83547
2.40931	6.86181
2.40819	6.88094
2.40707	7.00974
2.40595	7.03989
2.40484	7.17475
2.40372	7.29038
2.40261	7.24203
2.4015	7.04369
2.40039	6.8858
2.39928	6.90706
2.39817	6.90732
2.39706	6.87861
2.39595	6.94413
2.39484	7.05197
2.39374	7.11022
2.39263	7.01289
2.39153	6.88342
2.39043	6.91833
2.38932	6.90557
2.38822	6.94129
2.38712	6.95195
2.38603	7.02803
2.38493	7.09219
2.38383	7.09018
2.38274	7.09309
2.38164	7.22477
2.38055	7.30324
2.37946	7.1719
2.37836	6.83966
2.37727	6.77363
2.37618	6.94999
2.3751	7.08503
2.37401	7.03399
2.37292	6.97196
2.37184	6.99946
2.37075	7.10844
2.36967	7.06847
2.36859	7.01408
2.3675	6.98872
2.36642	6.99557
2.36534	7.05417
2.36427	7.04158
2.36319	7.13336
2.36211	7.194
2.36104	7.05806
2.35996	7.02996
2.35889	6.99705
2.35781	7.05223
2.35674	7.17509
2.35567	7.18357
2.3546	7.03408
2.35353	6.92998
2.35247	7.00111
2.3514	7.03602
2.35033	6.9989
2.34927	6.97693
2.3482	6.90647
2.34714	6.97589
2.34608	7.02048
2.34502	7.03212
2.34396	6.98565
2.3429	6.99048
2.34184	7.03947
2.34078	7.05827
2.33973	7.09003
2.33867	6.97376
2.33762	7.05742
2.33656	7.03205
2.33551	6.92373
2.33446	7.03054
2.33341	7.15559
2.33236	6.98989
2.33131	6.88855
2.33026	6.8947
2.32922	6.89079
2.32817	7.07235
2.32712	7.14977
2.32608	7.18691
2.32504	7.19569
2.324	7.09959
2.32295	7.07528
2.32191	7.02959
2.32087	6.99772
2.31984	7.05325
2.3188	7.19053
2.31776	7.21665
2.31673	7.21276
2.31569	7.15045
2.31466	7.01871
2.31362	6.94656
2.31259	7.02681
2.31156	7.16028
2.31053	6.96245
2.3095	6.97119
2.30847	7.22296
2.30745	7.29731
2.30642	7.1349
2.3054	7.11299
2.30437	7.19569
2.30335	7.35941
2.30232	7.22715
2.3013	7.10672
2.30028	7.18385
2.29926	7.15
2.29824	7.0894
2.29722	7.07595
2.29621	7.11263
2.29519	7.03144
2.29417	7.08062
2.29316	7.14907
2.29215	6.95361
2.29113	6.92952
2.29012	7.03227
2.28911	7.07736
2.2881	7.23872
2.28709	7.27858
2.28608	7.25717
2.28507	7.20304
2.28407	7.07074
2.28306	7.05139
2.28206	7.08839
2.28105	7.27466
2.28005	7.27334
2.27905	7.02168
2.27805	7.14996
2.27705	7.34843
2.27605	7.28316
2.27505	7.25162
2.27405	7.19996
2.27305	7.20705
2.27206	7.08873
2.27106	6.92015
2.27007	6.9301
2.26907	7.28272
2.26808	7.37739
2.26709	7.0233
2.2661	6.7784
2.26511	6.90014
2.26412	7.0879
2.26313	7.20895
2.26214	7.19541
2.26116	7.19162
2.26017	7.25799
2.25919	7.18998
2.2582	6.97526
2.25722	6.98557
2.25624	7.21855
2.25526	7.32775
2.25428	7.2435
2.2533	7.10429
2.25232	6.95954
2.25134	7.11707
2.25036	7.21011
2.24939	7.21664
2.24841	7.24472
2.24744	7.20335
2.24646	7.10826
2.24549	7.14329
2.24452	7.11524
2.24355	6.94605
2.24257	6.97846
2.24161	6.89607
2.24064	6.92314
2.23967	7.16403
2.2387	7.26927
2.23774	7.20713
2.23677	7.32809
2.23581	7.37622
2.23484	7.07357
2.23388	6.95593
2.23292	7.09264
2.23196	7.21475
2.231	7.24208
2.23004	7.2672
2.22908	7.29594
2.22812	7.25302
2.22716	7.2301
2.22621	7.27193
2.22525	7.243
2.2243	7.1844
2.22334	7.08937
2.22239	6.95815
2.22144	6.98331
2.22049	7.0151
2.21953	7.00706
2.21859	7.19334
2.21764	7.16533
2.21669	7.17984
2.21574	7.16914
2.21479	7.03143
2.21385	6.93526
2.2129	7.02979
2.21196	7.06942
2.21102	6.96543
2.21007	6.84207
2.20913	7.08104
2.20819	7.24095
2.20725	7.22235
2.20631	7.17747
2.20537	7.09112
2.20444	6.99721
2.2035	7.11977
2.20256	7.16003
2.20163	7.08335
2.20069	7.10939
2.19976	7.14817
2.19883	7.22525
2.19789	7.45448
2.19696	7.40353
2.19603	7.06363
2.1951	7.02257
2.19417	7.25344
2.19325	7.23949
2.19232	7.16802
2.19139	7.13142
2.19047	7.17597
2.18954	7.21562
2.18862	7.16059
2.18769	7.16758
2.18677	7.21612
2.18585	7.15266
2.18493	7.17166
2.18401	7.26607
2.18309	7.17453
2.18217	7.16141
2.18125	7.07887
2.18033	7.03464
2.17942	7.15925
2.1785	7.22869
2.17759	7.27649
2.17667	7.24252
2.17576	7.21537
2.17485	7.18829
2.17393	7.12848
2.17302	7.14028
2.17211	7.17736
2.1712	7.20102
2.17029	7.00774
2.16939	6.99606
2.16848	7.22919
2.16757	7.1476
2.16667	7.20072
2.16576	7.25612
2.16486	7.16324
2.16395	7.20412
2.16305	7.15209
2.16215	7.11917
2.16125	7.14648
2.16035	7.20456
2.15945	7.18275
2.15855	6.95109
2.15765	6.95701
2.15675	6.98201
2.15586	7.07886
2.15496	7.27852
2.15406	7.20658
2.15317	7.18811
2.15228	7.20396
2.15138	7.08889
2.15049	7.22222
2.1496	7.3849
2.14871	7.05901
2.14782	6.93706
2.14693	7.0496
2.14604	7.06771
2.14515	7.13291
2.14427	7.24619
2.14338	7.20082
2.14249	7.09306
2.14161	7.27579
2.14072	7.345
2.13984	7.29834
2.13896	7.13486
2.13808	6.94795
2.13719	6.9516
2.13631	6.98947
2.13543	7.05469
2.13455	7.06379
2.13368	7.12612
2.1328	7.26629
2.13192	7.20008
2.13105	7.03552
2.13017	7.12805
2.1293	7.23802
2.12842	7.23189
2.12755	7.29271
2.12668	7.15941
2.1258	7.11425
2.12493	6.95677
2.12406	7.08427
2.12319	7.39523
2.12232	7.30767
2.12145	7.22237
2.12059	7.2027
2.11972	7.26783
2.11885	7.50095
2.11799	7.38423
2.11712	7.18419
2.11626	7.14568
2.1154	7.27434
2.11453	7.44861
2.11367	7.29534
2.11281	6.92238
2.11195	6.86066
2.11109	7.10189
2.11023	7.13042
2.10937	7.16781
2.10851	7.22419
2.10766	7.16925
2.1068	7.24731
2.10594	7.03932
2.10509	6.81455
2.10423	7.15102
2.10338	7.35907
2.10253	7.35945
2.10168	7.19971
2.10082	7.06652
2.09997	7.11961
2.09912	7.12224
2.09827	6.93778
2.09742	6.81419
2.09658	6.97106
2.09573	7.16466
2.09488	7.10141
2.09404	7.03133
2.09319	7.17052
2.09235	7.18828
2.0915	6.83622
2.09066	6.98684
2.08982	7.4018
2.08897	7.4368
2.08813	7.36254
2.08729	7.1889
2.08645	6.98767
2.08561	7.07301
2.08477	7.07748
2.08394	7.19462
2.0831	7.42559
2.08226	7.2301
2.08143	7.26313
2.08059	7.26093
2.07976	6.95705
2.07892	6.99507
2.07809	6.91052
2.07726	6.49278
2.07643	6.76209
2.07559	7.0593
2.07476	7.19337
2.07393	7.41804
2.0731	7.52095
2.07228	7.38572
2.07145	7.3096
2.07062	6.79312
2.06979	6.44331
2.06897	6.88665
2.06814	6.80799
2.06732	6.86739
2.06649	7.28077
2.06567	7.05586
2.06485	6.89889
2.06403	6.85855
2.0632	6.9409
2.06238	7.04456
2.06156	7.05338
2.06074	7.33689
2.05993	7.36923
2.05911	7.11156
2.05829	7.07418
2.05747	7.21231
2.05666	7.27254
2.05584	7.11414
2.05503	7.12495
2.05421	7.1744
2.0534	7.10774
2.05259	7.04721
2.05177	7.00992
2.05096	7.21748
2.05015	7.25513
2.04934	7.21474
2.04853	7.35758
2.04772	7.40578
2.04691	7.28151
2.04611	7.25329
2.0453	7.33317
2.04449	7.24106
2.04369	7.0122
2.04288	7.02002
2.04208	7.34561
2.04127	7.27273
2.04047	7.17492
2.03967	7.06879
2.03886	7.05666
2.03806	7.11165
2.03726	7.26668
2.03646	7.54722
2.03566	7.33679
2.03486	7.01096
2.03407	6.94612
2.03327	7.08665
2.03247	7.26736
2.03167	7.56209
2.03088	7.46629
2.03008	7.08183
2.02929	6.88804
2.0285	7.03337
2.0277	7.14405
2.02691	7.01283
2.02612	7.01892
2.02533	7.32445
2.02453	7.30155
2.02374	7.00907
2.02295	7.07198
2.02217	7.33219
2.02138	7.26828
2.02059	7.16566
2.0198	7.28116
2.01902	7.36073
2.01823	7.22704
2.01744	7.10235
2.01666	7.19614
2.01588	7.17822
2.01509	7.18412
2.01431	7.27246
2.01353	7.18777
2.01275	7.17548
2.01196	7.29273
2.01118	7.11004
2.0104	6.97351
2.00963	7.13424
2.00885	7.2785
2.00807	7.09924
2.00729	7.00832
2.00651	7.11823
2.00574	7.36249
2.00496	7.3962
2.00419	7.22513
2.00341	7.04305
2.00264	7.11584
2.00187	7.22631
2.00109	7.246
2.00032	7.14608
