Name: Fayalite Fe_2SiO_4
Type: Mineral
Class: Silicates
Subclass: Nesosilicates
Particle Size: 125-500um
Sample No.: NS-1A
Owner: JPL
Wavelength range: IR
Origin: 
Collected by JPL
Description: 





Measurement: Hemispherical reflectance
First Column: X
Second Column: Y
X Units:  Wavelength (micrometers)
Y Units:  Reflectance (percent)
First X Value: 15.3853
Last X Value: 2.00032
Number of X Values: 2256
Additional information: ns01aa.txt
 
15.3853	3.96314
15.3397	4.20785
15.2945	4.40263
15.2495	4.57105
15.2048	4.58164
15.1603	4.61437
15.1161	4.52746
15.0722	4.32632
15.0285	4.25397
14.9851	4.30539
14.9419	4.30424
14.8989	4.25752
14.8563	4.35672
14.8138	4.48501
14.7716	4.40066
14.7296	4.45993
14.6879	4.5798
14.6464	4.63123
14.6052	4.78646
14.5641	4.62961
14.5233	4.58238
14.4828	4.89723
14.4424	4.9589
14.4023	4.82437
14.3624	4.85234
14.3227	4.93685
14.2833	4.89681
14.244	4.68301
14.205	4.75009
14.1662	4.9771
14.1276	4.92287
14.0892	4.77298
14.051	4.59174
14.0131	4.64608
13.9753	4.81831
13.9377	4.91749
13.9004	4.79453
13.8632	4.71878
13.8262	4.69355
13.7895	4.70162
13.7529	4.62905
13.7165	4.62516
13.6803	4.71998
13.6443	4.84756
13.6085	4.92463
13.5729	5.05116
13.5374	5.07718
13.5022	5.17057
13.4671	5.26859
13.4322	5.17886
13.3975	5.01747
13.363	4.98427
13.3286	5.03348
13.2944	4.97388
13.2604	5.03798
13.2266	5.30998
13.193	5.48515
13.1595	5.44342
13.1262	5.3955
13.093	5.43238
13.06	5.34391
13.0272	5.46008
12.9946	5.57494
12.9621	5.70519
12.9298	5.65687
12.8976	5.62005
12.8656	5.49505
12.8337	5.48439
12.8021	5.56276
12.7705	5.55824
12.7391	5.45746
12.7079	5.67088
12.6769	5.80344
12.6459	5.84767
12.6152	5.74071
12.5845	5.71729
12.5541	5.78975
12.5238	5.92044
12.4936	5.91277
12.4635	6.01254
12.4337	6.22178
12.4039	6.33814
12.3743	6.32895
12.3448	6.59231
12.3155	6.74304
12.2863	6.75196
12.2573	6.78123
12.2284	6.81241
12.1996	7.00571
12.171	7.2427
12.1425	7.44446
12.1141	7.57567
12.0859	7.58982
12.0578	7.42061
12.0298	7.0099
12.0019	6.71959
11.9742	6.75585
11.9466	6.86312
11.9192	6.92062
11.8918	7.13233
11.8646	7.51426
11.8375	7.74882
11.8106	7.96001
11.7837	8.12307
11.757	8.35442
11.7304	8.87399
11.7039	9.38858
11.6776	9.80419
11.6513	10.2254
11.6252	10.5897
11.5992	10.8252
11.5733	11.1172
11.5475	11.5014
11.5219	11.7065
11.4963	11.8286
11.4709	12.0068
11.4455	11.9902
11.4203	11.9173
11.3952	11.9754
11.3702	12.1795
11.3454	12.3199
11.3206	12.3883
11.2959	12.4486
11.2714	12.3954
11.2469	12.3428
11.2226	12.2914
11.1983	12.322
11.1742	12.2492
11.1502	12.282
11.1263	12.2869
11.1024	12.2573
11.0787	12.2214
11.0551	12.1508
11.0316	12.11
11.0081	11.9651
10.9848	11.8392
10.9616	11.6868
10.9385	11.3316
10.9154	10.8802
10.8925	10.477
10.8697	10.2072
10.8469	9.94249
10.8243	9.66131
10.8017	9.40346
10.7793	9.45925
10.7569	9.77619
10.7346	10.1345
10.7125	10.5782
10.6904	11.1475
10.6684	11.613
10.6465	12.1385
10.6247	12.7923
10.6029	13.2655
10.5813	13.5328
10.5597	13.67
10.5383	13.7433
10.5169	13.6264
10.4956	13.2855
10.4744	12.7078
10.4533	12.1585
10.4323	11.721
10.4113	11.2873
10.3904	10.9942
10.3697	10.7934
10.349	10.6617
10.3284	10.4434
10.3078	10.2264
10.2874	10.0409
10.267	10.027
10.2467	9.97992
10.2265	9.87698
10.2064	9.92285
10.1863	9.95503
10.1663	10.1139
10.1464	10.1921
10.1266	10.1385
10.1069	10.2494
10.0872	10.5739
10.0676	10.8536
10.0481	11.0633
10.0287	11.2172
10.0093	11.3857
9.99005	11.5819
9.97084	11.7388
9.95169	11.9085
9.93263	11.9771
9.91364	11.9784
9.89472	12.0212
9.87587	12.1216
9.8571	12.1129
9.83839	11.981
9.81976	11.829
9.80119	11.5554
9.78271	11.3014
9.76428	11.1829
9.74592	11.1659
9.72764	11.0087
9.70943	10.7277
9.69128	10.5858
9.6732	10.5125
9.65518	10.4228
9.63724	10.3162
9.61935	10.1602
9.60155	10.0694
9.5838	10.043
9.56611	9.96628
9.5485	9.81422
9.53094	9.52931
9.51345	9.27527
9.49604	9.07537
9.47867	8.93273
9.46137	8.66383
9.44414	8.36878
9.42697	8.21502
9.40986	8.04476
9.39281	7.8673
9.37583	7.72525
9.35891	7.39047
9.34204	7.13961
9.32524	6.99192
9.3085	6.79261
9.29182	6.98919
9.27519	7.18889
9.25863	7.39108
9.24213	7.67784
9.22568	7.88992
9.2093	8.03975
9.19297	8.08754
9.17669	8.11782
9.16048	8.21103
9.14433	8.28216
9.12823	8.10608
9.11218	7.64394
9.0962	7.28153
9.08027	7.0558
9.06439	6.69715
9.04858	6.32017
9.03281	6.04753
9.0171	5.83
9.00145	5.4899
8.98585	5.29097
8.9703	5.16162
8.9548	5.09372
8.93937	5.07165
8.92398	4.96016
8.90865	5.02164
8.89337	5.23975
8.87814	5.30412
8.86296	5.49051
8.84784	5.70578
8.83277	5.79645
8.81774	5.86285
8.80277	5.97953
8.78786	6.21542
8.77298	6.378
8.75816	6.39126
8.7434	6.21562
8.72868	6.04119
8.714	5.95252
8.69938	5.89691
8.68481	5.84811
8.67029	5.56576
8.65581	5.28049
8.64139	5.22337
8.62701	5.03542
8.61268	4.69482
8.5984	4.48463
8.58416	4.43449
8.56997	4.34398
8.55583	4.21967
8.54174	4.27287
8.52769	4.25645
8.51368	4.05773
8.49973	3.85512
8.48582	3.7402
8.47195	3.81401
8.45813	3.89398
8.44436	3.94415
8.43062	4.05198
8.41693	4.13575
8.4033	4.0586
8.3897	3.9962
8.37614	4.01676
8.36264	4.01007
8.34917	3.90665
8.33574	3.77406
8.32236	3.87989
8.30903	4.05636
8.29573	4.00667
8.28248	3.86946
8.26927	3.82388
8.2561	3.78531
8.24298	3.67083
8.2299	3.74002
8.21685	3.93765
8.20385	4.02787
8.19089	4.0351
8.17797	3.88273
8.16509	3.78209
8.15225	3.84256
8.13946	3.89997
8.1267	3.88421
8.11398	3.91259
8.10131	3.9275
8.08867	3.96581
8.07606	3.98496
8.0635	3.93424
8.05099	3.89235
8.0385	3.92993
8.02606	3.89259
8.01366	3.93812
8.00129	3.99416
7.98896	3.955
7.97667	3.93395
7.96442	3.97917
7.9522	4.02133
7.94002	4.03931
7.92788	4.01872
7.91578	3.9692
7.90371	4.02906
7.89168	4.0683
7.87969	4.05533
7.86773	4.02307
7.85581	4.05898
7.84392	4.09639
7.83207	4.06096
7.82026	4.06612
7.80849	4.15965
7.79674	4.17908
7.78503	4.14877
7.77337	4.07333
7.76173	4.09785
7.75012	4.16479
7.73856	4.17993
7.72703	4.16047
7.71553	4.18077
7.70406	4.14555
7.69263	4.07021
7.68123	4.0252
7.66987	4.12889
7.65855	4.2235
7.64725	4.26445
7.63598	4.27008
7.62475	4.20953
7.61356	4.19843
7.60239	4.27043
7.59126	4.22959
7.58017	4.23527
7.5691	4.32532
7.55806	4.40842
7.54707	4.37462
7.5361	4.34414
7.52516	4.32731
7.51425	4.34945
7.50338	4.46122
7.49253	4.49439
7.48172	4.41636
7.47094	4.3846
7.46019	4.41364
7.44947	4.44967
7.43879	4.41914
7.42813	4.46832
7.4175	4.51331
7.4069	4.46558
7.39634	4.43422
7.3858	4.44999
7.37529	4.46755
7.36482	4.48453
7.35437	4.4488
7.34396	4.48705
7.33357	4.52203
7.32321	4.52235
7.31288	4.56854
7.30258	4.50957
7.29231	4.53971
7.28207	4.64131
7.27185	4.68152
7.26167	4.60827
7.25152	4.50671
7.24139	4.52095
7.23129	4.57657
7.22122	4.56995
7.21117	4.61904
7.20116	4.63364
7.19117	4.65419
7.18121	4.70533
7.17128	4.70305
7.16137	4.68732
7.1515	4.7478
7.14164	4.8013
7.13182	4.82622
7.12203	4.75559
7.11225	4.71326
7.10251	4.74612
7.0928	4.79141
7.08311	4.77712
7.07344	4.83598
7.06381	4.94158
7.0542	4.89229
7.04461	4.83733
7.03506	4.8189
7.02552	4.90235
7.01601	4.99777
7.00653	4.97855
6.99708	5.015
6.98765	5.00456
6.97824	4.87678
6.96886	4.84705
6.95951	4.93126
6.95018	4.9494
6.94087	4.9564
6.9316	4.94402
6.92234	4.91552
6.91311	4.98232
6.90391	5.0803
6.89473	5.15503
6.88557	5.16085
6.87644	5.15005
6.86733	5.18304
6.85824	5.14913
6.84918	5.06536
6.84015	5.03566
6.83114	5.08945
6.82215	5.15461
6.81319	5.17323
6.80424	5.12062
6.79532	5.13832
6.78643	5.25407
6.77756	5.23935
6.76871	5.14636
6.75989	5.027
6.75109	4.96289
6.74231	5.08815
6.73355	5.14465
6.72482	5.15092
6.71611	5.23199
6.70742	5.26178
6.69875	5.21218
6.69011	5.13978
6.68149	5.10993
6.67289	5.14999
6.66431	5.18087
6.65576	5.19048
6.64722	5.26296
6.63871	5.30213
6.63022	5.18741
6.62175	5.07796
6.61331	5.06759
6.60488	5.0811
6.59648	5.11844
6.5881	5.18111
6.57974	5.2522
6.5714	5.31145
6.56308	5.19733
6.55478	5.18808
6.54651	5.1148
6.53825	5.03639
6.53001	5.17038
6.5218	5.25854
6.51361	5.20401
6.50544	5.23523
6.49729	5.30577
6.48915	5.26582
6.48104	5.09242
6.47295	5.02017
6.46488	5.05207
6.45683	5.11114
6.4488	5.20818
6.44079	5.16682
6.4328	5.2143
6.42482	5.26429
6.41687	5.32917
6.40894	5.28686
6.40103	5.15022
6.39314	5.08463
6.38526	5.04643
6.37741	4.96106
6.36957	4.93888
6.36176	4.98273
6.35396	5.02444
6.34618	5.13185
6.33843	5.15676
6.33069	5.10705
6.32297	5.06041
6.31527	5.00692
6.30758	4.92652
6.29992	4.91363
6.29227	4.89424
6.28465	4.85131
6.27704	4.89174
6.26945	4.91003
6.26188	4.91543
6.25432	4.91197
6.24679	4.88709
6.23927	4.86985
6.23177	4.92692
6.22429	4.91462
6.21683	4.91399
6.20938	4.90026
6.20195	4.82974
6.19454	4.781
6.18715	4.81892
6.17978	4.70226
6.17242	4.59518
6.16508	4.68565
6.15776	4.81703
6.15045	4.74231
6.14317	4.66015
6.1359	4.6033
6.12864	4.60547
6.12141	4.63863
6.11419	4.65919
6.10699	4.6217
6.0998	4.56164
6.09263	4.61399
6.08549	4.71231
6.07835	4.76626
6.07123	4.73133
6.06413	4.66853
6.05705	4.74005
6.04998	4.789
6.04293	4.65219
6.0359	4.58134
6.02888	4.67471
6.02187	4.73787
6.01489	4.78998
6.00792	4.83809
6.00096	4.84203
5.99403	4.91373
5.98711	4.90148
5.9802	4.891
5.97331	4.94555
5.96644	4.79496
5.95958	4.72918
5.95274	4.78706
5.94591	4.82833
5.9391	4.95818
5.9323	4.966
5.92552	4.87375
5.91876	4.88266
5.91201	4.89828
5.90528	4.82694
5.89856	4.88403
5.89186	4.88848
5.88517	4.93656
5.8785	4.9342
5.87184	4.8915
5.8652	4.9095
5.85857	4.91
5.85196	4.92668
5.84536	4.81439
5.83878	4.79321
5.83221	4.90319
5.82566	4.99498
5.81912	5.02354
5.81259	4.87263
5.80608	4.75011
5.79959	4.8165
5.79311	4.8275
5.78665	4.78159
5.78019	4.82041
5.77376	4.90123
5.76734	5.05151
5.76093	4.96765
5.75453	4.85624
5.74815	4.77743
5.74179	4.76542
5.73543	4.80849
5.7291	4.80165
5.72277	4.74196
5.71646	4.78085
5.71017	4.81035
5.70389	4.87429
5.69762	4.90061
5.69136	4.84778
5.68513	4.77291
5.6789	4.71705
5.67268	4.79275
5.66648	4.8075
5.6603	4.77096
5.65413	4.82733
5.64797	4.79569
5.64182	4.78664
5.63569	4.68629
5.62957	4.64047
5.62347	4.75886
5.61737	4.86745
5.61129	4.88394
5.60522	4.80705
5.59917	4.76573
5.59313	4.80292
5.5871	4.91572
5.58109	4.97036
5.57509	4.96022
5.5691	4.8908
5.56312	4.83416
5.55716	4.83403
5.55121	4.84715
5.54528	4.88068
5.53935	4.909
5.53344	4.89366
5.52754	4.87218
5.52166	4.89271
5.51578	4.86073
5.50992	4.82643
5.50407	4.8896
5.49823	4.89042
5.49241	4.86188
5.4866	4.90579
5.4808	4.9691
5.47501	4.94982
5.46923	4.96745
5.46347	5.02848
5.45772	5.07511
5.45198	5.05523
5.44625	5.0265
5.44054	4.97743
5.43484	4.9699
5.42914	5.03291
5.42347	5.08255
5.4178	5.05619
5.41214	5.07373
5.4065	5.09511
5.40087	5.04507
5.39525	5.01575
5.38964	5.04399
5.38404	5.06389
5.37846	5.08723
5.37288	5.12014
5.36732	5.10001
5.36177	5.08303
5.35623	5.12579
5.35071	5.1772
5.34519	5.18409
5.33968	5.18321
5.33419	5.18882
5.32871	5.17293
5.32324	5.13993
5.31778	5.16118
5.31233	5.24177
5.30689	5.22937
5.30147	5.16184
5.29605	5.18767
5.29065	5.26564
5.28525	5.25521
5.27987	5.23721
5.2745	5.27145
5.26914	5.24967
5.26379	5.23678
5.25845	5.34485
5.25312	5.39909
5.24781	5.3959
5.2425	5.35155
5.23721	5.29786
5.23192	5.27585
5.22665	5.26926
5.22138	5.33658
5.21613	5.46144
5.21089	5.46282
5.20566	5.39794
5.20044	5.41358
5.19522	5.41994
5.19002	5.49382
5.18483	5.54858
5.17965	5.56026
5.17448	5.55529
5.16933	5.55672
5.16418	5.59032
5.15904	5.61276
5.15391	5.57648
5.14879	5.62085
5.14368	5.63593
5.13859	5.62859
5.1335	5.67662
5.12842	5.74783
5.12335	5.77405
5.1183	5.6319
5.11325	5.55949
5.10821	5.59719
5.10318	5.69433
5.09817	5.71791
5.09316	5.68622
5.08816	5.69564
5.08317	5.74362
5.07819	5.8266
5.07322	5.83968
5.06826	5.76726
5.06331	5.68356
5.05837	5.74608
5.05344	5.77267
5.04852	5.7499
5.04361	5.77712
5.03871	5.77589
5.03382	5.74792
5.02894	5.72618
5.02406	5.75294
5.0192	5.81483
5.01435	5.80053
5.0095	5.77894
5.00467	5.86349
4.99984	5.9019
4.99502	5.88179
4.99021	5.85609
4.98542	5.79939
4.98063	5.79688
4.97585	5.82548
4.97108	5.8063
4.96632	5.84151
4.96156	5.88244
4.95682	5.8616
4.95209	5.88393
4.94736	5.93147
4.94264	5.93732
4.93794	5.91083
4.93324	5.97619
4.92855	6.01472
4.92387	5.93566
4.9192	5.88609
4.91453	5.93411
4.90988	5.99584
4.90524	6.01873
4.9006	6.00123
4.89597	6.03507
4.89135	6.06761
4.88674	6.06315
4.88214	6.03773
4.87755	6.02601
4.87296	6.06625
4.86839	6.05137
4.86382	6.00719
4.85926	6.10956
4.85471	6.19328
4.85017	6.15624
4.84564	6.1027
4.84111	6.05917
4.8366	6.05238
4.83209	6.07353
4.82759	6.11482
4.8231	6.18432
4.81862	6.18666
4.81415	6.16627
4.80968	6.13655
4.80522	6.16404
4.80077	6.20037
4.79633	6.2277
4.7919	6.3039
4.78747	6.27522
4.78306	6.30568
4.77865	6.33651
4.77425	6.22798
4.76986	6.21627
4.76547	6.29426
4.7611	6.31192
4.75673	6.2779
4.75237	6.32786
4.74802	6.3803
4.74367	6.33043
4.73934	6.24111
4.73501	6.2313
4.73069	6.33853
4.72638	6.43276
4.72207	6.36109
4.71777	6.33451
4.71348	6.34075
4.7092	6.33909
4.70493	6.36206
4.70066	6.37117
4.69641	6.39474
4.69216	6.41109
4.68791	6.39136
4.68368	6.43705
4.67945	6.53463
4.67523	6.51234
4.67102	6.41544
4.66682	6.42772
4.66262	6.44983
4.65843	6.47409
4.65425	6.48406
4.65007	6.43224
4.64591	6.46777
4.64175	6.53171
4.6376	6.47092
4.63345	6.39271
4.62932	6.41598
4.62519	6.53027
4.62106	6.5301
4.61695	6.4959
4.61284	6.55196
4.60874	6.5409
4.60465	6.5807
4.60056	6.62756
4.59648	6.57491
4.59241	6.55351
4.58835	6.48037
4.58429	6.44708
4.58024	6.56239
4.5762	6.64887
4.57216	6.64275
4.56814	6.56825
4.56411	6.51815
4.5601	6.62971
4.55609	6.66234
4.55209	6.62491
4.5481	6.60907
4.54411	6.64124
4.54013	6.67527
4.53616	6.70673
4.5322	6.71816
4.52824	6.72883
4.52429	6.72661
4.52034	6.67776
4.51641	6.66314
4.51247	6.70137
4.50855	6.68456
4.50463	6.66151
4.50072	6.68253
4.49682	6.6803
4.49292	6.66188
4.48903	6.7013
4.48515	6.731
4.48127	6.78102
4.4774	6.76973
4.47354	6.75605
4.46968	6.75825
4.46584	6.70135
4.46199	6.71383
4.45815	6.81336
4.45432	6.83435
4.4505	6.73665
4.44668	6.76749
4.44287	6.8677
4.43907	6.81569
4.43527	6.7067
4.43148	6.7637
4.4277	6.81228
4.42392	6.84172
4.42015	6.8319
4.41638	6.82385
4.41262	6.87229
4.40887	6.99639
4.40513	6.94163
4.40139	6.75938
4.39765	6.80316
4.39393	6.85375
4.39021	6.82352
4.38649	6.85812
4.38278	6.86806
4.37908	6.81673
4.37539	6.85027
4.3717	6.86294
4.36801	6.86896
4.36434	6.82378
4.36067	6.89146
4.357	6.90826
4.35335	6.85621
4.34969	6.89031
4.34605	6.90843
4.34241	6.83872
4.33877	6.81669
4.33514	6.87032
4.33152	6.89741
4.32791	6.92912
4.3243	6.97948
4.32069	6.98377
4.3171	7.01097
4.31351	7.01034
4.30992	7.02533
4.30634	6.94677
4.30277	6.88967
4.2992	6.99301
4.29564	7.05503
4.29208	7.0098
4.28853	6.96287
4.28499	6.99479
4.28145	7.00651
4.27792	7.09924
4.27439	7.10976
4.27087	7.0271
4.26735	6.99862
4.26384	6.97649
4.26034	6.95891
4.25684	6.99778
4.25335	7.09396
4.24986	7.16828
4.24638	7.13509
4.24291	7.07198
4.23944	7.09558
4.23598	7.04122
4.23252	7.02776
4.22906	7.05508
4.22562	6.98958
4.22218	6.96074
4.21874	7.10387
4.21531	7.15699
4.21189	7.05878
4.20847	6.97346
4.20506	6.97602
4.20165	7.05022
4.19825	7.2058
4.19485	7.19249
4.19146	7.07043
4.18807	7.00352
4.18469	7.05953
4.18132	7.11391
4.17795	7.11444
4.17458	7.08121
4.17123	7.08724
4.16787	7.09295
4.16453	7.03965
4.16118	6.9761
4.15785	6.99221
4.15451	7.13658
4.15119	7.19545
4.14787	7.15481
4.14455	7.16974
4.14124	7.17038
4.13794	7.16707
4.13464	7.14198
4.13134	7.14963
4.12805	7.13182
4.12477	7.08955
4.12149	7.13698
4.11822	7.17725
4.11495	7.19421
4.11168	7.13249
4.10843	7.15074
4.10517	7.24738
4.10192	7.23143
4.09868	7.23197
4.09545	7.24649
4.09221	7.21922
4.08899	7.2171
4.08576	7.21811
4.08255	7.19329
4.07933	7.12105
4.07613	7.08389
4.07292	7.13831
4.06973	7.20124
4.06654	7.24108
4.06335	7.27236
4.06017	7.3165
4.05699	7.29375
4.05382	7.31021
4.05065	7.30132
4.04749	7.22123
4.04433	7.15302
4.04118	7.11559
4.03803	7.12951
4.03489	7.19416
4.03175	7.19867
4.02862	7.1496
4.02549	7.1964
4.02237	7.22022
4.01925	7.26727
4.01614	7.30135
4.01303	7.27657
4.00993	7.24184
4.00683	7.24432
4.00373	7.2772
4.00064	7.33974
3.99756	7.37946
3.99448	7.32691
3.9914	7.29523
3.98833	7.34042
3.98527	7.34269
3.98221	7.31414
3.97915	7.2693
3.9761	7.23546
3.97305	7.30793
3.97001	7.34711
3.96697	7.33686
3.96394	7.40878
3.96091	7.44081
3.95789	7.41507
3.95487	7.31369
3.95186	7.27968
3.94885	7.36585
3.94584	7.38098
3.94284	7.29242
3.93984	7.34852
3.93685	7.37863
3.93386	7.32129
3.93088	7.24848
3.9279	7.29051
3.92493	7.36024
3.92196	7.36671
3.919	7.38031
3.91604	7.39366
3.91308	7.37474
3.91013	7.40667
3.90718	7.45052
3.90424	7.43872
3.9013	7.35885
3.89837	7.34501
3.89544	7.31492
3.89252	7.35447
3.8896	7.37707
3.88668	7.44675
3.88377	7.42868
3.88086	7.41859
3.87796	7.42834
3.87506	7.3957
3.87217	7.42825
3.86928	7.40866
3.86639	7.3773
3.86351	7.44456
3.86064	7.44902
3.85776	7.4071
3.8549	7.44191
3.85203	7.53324
3.84917	7.5034
3.84631	7.38179
3.84346	7.31663
3.84062	7.43459
3.83777	7.53055
3.83494	7.48293
3.8321	7.35706
3.82927	7.36974
3.82644	7.55468
3.82362	7.54068
3.82081	7.49913
3.81799	7.48184
3.81518	7.47034
3.81238	7.35431
3.80958	7.33214
3.80678	7.41317
3.80399	7.4531
3.8012	7.39341
3.79841	7.36429
3.79563	7.44084
3.79286	7.50041
3.79008	7.47378
3.78731	7.46367
3.78455	7.49672
3.78179	7.48363
3.77903	7.50814
3.77628	7.538
3.77353	7.52999
3.77079	7.50382
3.76805	7.4489
3.76531	7.4974
3.76258	7.48502
3.75985	7.38111
3.75713	7.36997
3.7544	7.44682
3.75169	7.48637
3.74898	7.48475
3.74627	7.44631
3.74356	7.42755
3.74086	7.42149
3.73816	7.40954
3.73547	7.43081
3.73278	7.46645
3.7301	7.49977
3.72741	7.52098
3.72474	7.4923
3.72206	7.39081
3.71939	7.41711
3.71673	7.50553
3.71406	7.4234
3.71141	7.39445
3.70875	7.4769
3.7061	7.52156
3.70345	7.48022
3.70081	7.33228
3.69817	7.36972
3.69553	7.44545
3.6929	7.45466
3.69027	7.44895
3.68765	7.47335
3.68503	7.42457
3.68241	7.4127
3.6798	7.47186
3.67719	7.50165
3.67458	7.46021
3.67198	7.36979
3.66938	7.40603
3.66678	7.46633
3.66419	7.45
3.66161	7.45263
3.65902	7.45823
3.65644	7.45772
3.65387	7.51298
3.65129	7.462
3.64872	7.41926
3.64616	7.46207
3.64359	7.51372
3.64103	7.43753
3.63848	7.33941
3.63593	7.28832
3.63338	7.20783
3.63084	7.24727
3.6283	7.39498
3.62576	7.40815
3.62322	7.40524
3.62069	7.36769
3.61817	7.35192
3.61564	7.46183
3.61312	7.52918
3.61061	7.43911
3.6081	7.39557
3.60559	7.43976
3.60308	7.46527
3.60058	7.42032
3.59808	7.37133
3.59558	7.35429
3.59309	7.42027
3.59061	7.45534
3.58812	7.41073
3.58564	7.36335
3.58316	7.41736
3.58069	7.38476
3.57822	7.34005
3.57575	7.30982
3.57328	7.2854
3.57082	7.29901
3.56836	7.29215
3.56591	7.32926
3.56346	7.35501
3.56101	7.34199
3.55857	7.39098
3.55613	7.37328
3.55369	7.29835
3.55126	7.22701
3.54883	7.26774
3.5464	7.29058
3.54397	7.37154
3.54155	7.41503
3.53914	7.33258
3.53672	7.21726
3.53431	7.26576
3.5319	7.3571
3.5295	7.36505
3.5271	7.36145
3.5247	7.39472
3.52231	7.39036
3.51991	7.38266
3.51753	7.35823
3.51514	7.29154
3.51276	7.26594
3.51038	7.2373
3.50801	7.26756
3.50563	7.27251
3.50327	7.30232
3.5009	7.3126
3.49854	7.30647
3.49618	7.31248
3.49382	7.30792
3.49147	7.33916
3.48912	7.38805
3.48677	7.30864
3.48443	7.20826
3.48209	7.22303
3.47975	7.29164
3.47742	7.23078
3.47509	7.20491
3.47276	7.29982
3.47044	7.31001
3.46812	7.26201
3.4658	7.20076
3.46348	7.22774
3.46117	7.21442
3.45886	7.17067
3.45656	7.19952
3.45425	7.25507
3.45195	7.24383
3.44966	7.2594
3.44736	7.2299
3.44507	7.20744
3.44279	7.08678
3.4405	7.05389
3.43822	7.17444
3.43594	7.26232
3.43367	7.2701
3.43139	7.17343
3.42912	7.15695
3.42686	7.10083
3.42459	7.04056
3.42233	7.04377
3.42007	7.14342
3.41782	7.2569
3.41557	7.24872
3.41332	7.17124
3.41108	7.11889
3.40883	7.11043
3.40659	7.11787
3.40435	7.06554
3.40212	7.09305
3.39989	7.14264
3.39766	7.14575
3.39544	7.09837
3.39322	7.10715
3.391	7.09933
3.38878	7.05998
3.38657	7.10465
3.38436	7.12684
3.38215	7.16333
3.37994	7.25253
3.37774	7.17385
3.37554	7.01377
3.37335	6.95358
3.37115	6.96584
3.36896	7.07011
3.36678	7.08112
3.36459	7.01741
3.36241	6.93466
3.36023	6.92151
3.35805	6.98323
3.35588	6.9722
3.35371	6.95876
3.35154	6.98149
3.34938	7.02758
3.34721	7.00418
3.34505	6.93449
3.3429	6.94246
3.34074	6.94181
3.33859	6.952
3.33644	7.04231
3.3343	7.02502
3.33215	6.9034
3.33001	6.82169
3.32788	6.85986
3.32574	6.93203
3.32361	7.04526
3.32148	7.05039
3.31936	6.99933
3.31723	6.90282
3.31511	6.84158
3.31299	6.9284
3.31088	6.90138
3.30876	6.87092
3.30665	6.88317
3.30455	6.84568
3.30244	6.85632
3.30034	6.94278
3.29824	6.89633
3.29614	6.79455
3.29405	6.82059
3.29196	6.88752
3.28987	6.86329
3.28778	6.83075
3.2857	6.73445
3.28362	6.74292
3.28154	6.82782
3.27946	6.78519
3.27739	6.79757
3.27532	6.84477
3.27325	6.89026
3.27119	6.81028
3.26913	6.74594
3.26707	6.7519
3.26501	6.75796
3.26295	6.8332
3.2609	6.83057
3.25885	6.76913
3.2568	6.74658
3.25476	6.6085
3.25272	6.57265
3.25068	6.62486
3.24864	6.68242
3.24661	6.69152
3.24458	6.73937
3.24255	6.67827
3.24052	6.69847
3.2385	6.65415
3.23648	6.61558
3.23446	6.58907
3.23244	6.61549
3.23043	6.67114
3.22841	6.68392
3.2264	6.55839
3.2244	6.52189
3.22239	6.50666
3.22039	6.49903
3.21839	6.55732
3.2164	6.4081
3.2144	6.49495
3.21241	6.55647
3.21042	6.4748
3.20844	6.44786
3.20645	6.41169
3.20447	6.48703
3.20249	6.51443
3.20051	6.55252
3.19854	6.54923
3.19657	6.53052
3.1946	6.50011
3.19263	6.44927
3.19067	6.46303
3.1887	6.46056
3.18674	6.49735
3.18479	6.50938
3.18283	6.5052
3.18088	6.43636
3.17893	6.42661
3.17698	6.45535
3.17504	6.4426
3.17309	6.42801
3.17115	6.52472
3.16921	6.5515
3.16728	6.44829
3.16534	6.27252
3.16341	6.21206
3.16148	6.31136
3.15956	6.37742
3.15763	6.30755
3.15571	6.42702
3.15379	6.46165
3.15187	6.39686
3.14996	6.43491
3.14805	6.43598
3.14614	6.37751
3.14423	6.43361
3.14232	6.38094
3.14042	6.36543
3.13852	6.4451
3.13662	6.43495
3.13472	6.4198
3.13283	6.39633
3.13094	6.44198
3.12905	6.3629
3.12716	6.23597
3.12528	6.26112
3.12339	6.29073
3.12151	6.24637
3.11964	6.20618
3.11776	6.26777
3.11589	6.31986
3.11401	6.34343
3.11214	6.31548
3.11028	6.33086
3.10841	6.39507
3.10655	6.4261
3.10469	6.34596
3.10283	6.33049
3.10098	6.41915
3.09912	6.36025
3.09727	6.35644
3.09542	6.45672
3.09358	6.41751
3.09173	6.38313
3.08989	6.3049
3.08805	6.29114
3.08621	6.32618
3.08437	6.37074
3.08254	6.33363
3.08071	6.34145
3.07888	6.31234
3.07705	6.22929
3.07523	6.24067
3.0734	6.31857
3.07158	6.37035
3.06977	6.38466
3.06795	6.43688
3.06613	6.38065
3.06432	6.24709
3.06251	6.31186
3.0607	6.32578
3.0589	6.2684
3.0571	6.14424
3.05529	6.10293
3.05349	6.35734
3.0517	6.44688
3.0499	6.29689
3.04811	6.23574
3.04632	6.26299
3.04453	6.36037
3.04274	6.31102
3.04096	6.14634
3.03918	6.22024
3.0374	6.42094
3.03562	6.5156
3.03384	6.47613
3.03207	6.36297
3.03029	6.22359
3.02852	6.31283
3.02676	6.37219
3.02499	6.24685
3.02323	6.21772
3.02146	6.32226
3.0197	6.37387
3.01795	6.2209
3.01619	6.17819
3.01444	6.29408
3.01269	6.27484
3.01094	6.28292
3.00919	6.2639
3.00744	6.16716
3.0057	6.10401
3.00396	6.15413
3.00222	6.37346
3.00048	6.50327
2.99875	6.31328
2.99701	6.1482
2.99528	6.18533
2.99355	6.32297
2.99183	6.36434
2.9901	6.2972
2.98838	6.31075
2.98666	6.37918
2.98494	6.23312
2.98322	6.22796
2.9815	6.37118
2.97979	6.41823
2.97808	6.3102
2.97637	6.20513
2.97466	6.13892
2.97295	6.291
2.97125	6.44702
2.96955	6.32683
2.96785	6.19814
2.96615	6.1758
2.96446	6.1101
2.96276	6.08254
2.96107	6.18783
2.95938	6.30256
2.95769	6.34035
2.95601	6.37416
2.95432	6.36937
2.95264	6.23288
2.95096	6.27235
2.94928	6.3574
2.9476	6.23924
2.94593	6.18968
2.94425	6.22679
2.94258	6.20631
2.94092	6.32157
2.93925	6.32273
2.93758	6.20642
2.93592	6.28157
2.93426	6.3397
2.9326	6.22592
2.93094	6.12587
2.92928	6.24984
2.92763	6.36182
2.92598	6.36936
2.92433	6.28539
2.92268	6.23326
2.92103	6.27565
2.91939	6.24541
2.91775	6.23919
2.9161	6.18284
2.91447	6.26552
2.91283	6.45341
2.91119	6.4727
2.90956	6.30213
2.90793	6.15681
2.9063	6.25454
2.90467	6.47537
2.90304	6.45052
2.90142	6.26002
2.89979	6.22567
2.89817	6.31588
2.89656	6.33699
2.89494	6.32043
2.89332	6.34304
2.89171	6.32165
2.8901	6.19526
2.88849	6.14336
2.88688	6.22274
2.88527	6.30976
2.88367	6.36115
2.88206	6.37224
2.88046	6.42
2.87886	6.40916
2.87727	6.33911
2.87567	6.40013
2.87408	6.43639
2.87248	6.38262
2.87089	6.42125
2.8693	6.45415
2.86772	6.44865
2.86613	6.37643
2.86455	6.37712
2.86297	6.3489
2.86139	6.28478
2.85981	6.30282
2.85823	6.25041
2.85666	6.37333
2.85508	6.51241
2.85351	6.42701
2.85194	6.22262
2.85038	6.26984
2.84881	6.45082
2.84724	6.48329
2.84568	6.30058
2.84412	6.34532
2.84256	6.26823
2.841	6.07232
2.83945	6.01187
2.83789	5.99437
2.83634	6.09473
2.83479	6.13538
2.83324	6.16262
2.83169	6.29876
2.83015	6.15638
2.82861	6.04923
2.82706	6.15495
2.82552	6.24395
2.82398	6.29346
2.82245	6.15022
2.82091	6.02712
2.81938	6.15156
2.81784	6.05204
2.81631	6.03003
2.81479	6.03773
2.81326	6.05227
2.81173	6.22543
2.81021	6.11877
2.80869	5.84792
2.80716	5.85301
2.80565	5.84969
2.80413	5.76371
2.80261	5.88407
2.8011	5.94343
2.79959	5.93295
2.79808	5.8579
2.79657	5.78996
2.79506	5.71444
2.79355	5.70122
2.79205	5.71817
2.79055	5.7617
2.78904	5.8488
2.78754	5.81167
2.78605	5.84513
2.78455	5.89669
2.78306	5.8883
2.78156	5.96412
2.78007	5.98207
2.77858	6.03497
2.77709	5.95064
2.77561	5.82609
2.77412	5.8673
2.77264	6.05852
2.77116	6.01596
2.76968	5.78296
2.7682	5.78122
2.76672	5.6623
2.76524	5.3401
2.76377	5.45356
2.7623	5.56341
2.76083	5.6368
2.75936	5.81913
2.75789	6.16301
2.75642	6.47965
2.75496	6.43116
2.7535	6.36765
2.75203	6.26856
2.75057	6.02299
2.74912	6.14594
2.74766	6.5085
2.7462	6.83878
2.74475	7.0728
2.7433	7.19058
2.74185	7.25085
2.7404	7.24072
2.73895	7.24472
2.7375	7.34174
2.73606	7.51375
2.73462	7.8276
2.73318	7.79102
2.73174	7.61224
2.7303	7.59435
2.72886	7.56299
2.72742	7.5404
2.72599	7.68063
2.72456	7.79146
2.72313	7.89191
2.7217	7.93671
2.72027	8.06051
2.71884	8.21798
2.71742	8.32531
2.71599	8.2512
2.71457	8.2412
2.71315	8.36075
2.71173	8.55256
2.71032	8.61771
2.7089	8.56888
2.70748	8.51379
2.70607	8.60831
2.70466	8.69676
2.70325	8.69432
2.70184	8.66532
2.70043	8.61089
2.69903	8.6301
2.69762	8.64851
2.69622	8.71566
2.69482	8.74469
2.69342	8.64986
2.69202	8.69605
2.69062	8.82714
2.68923	8.90896
2.68783	8.93484
2.68644	8.83506
2.68505	8.79355
2.68366	8.87647
2.68227	8.95684
2.68089	8.97494
2.6795	8.98478
2.67812	8.95997
2.67673	8.96305
2.67535	8.84855
2.67397	8.75759
2.6726	8.80674
2.67122	9.06857
2.66984	9.0765
2.66847	8.96394
2.6671	9.20508
2.66572	9.22088
2.66435	9.00407
2.66299	8.83548
2.66162	8.80511
2.66025	8.84196
2.65889	8.89416
2.65753	8.98454
2.65616	9.12073
2.65481	9.14719
2.65345	9.14347
2.65209	9.00835
2.65073	8.88784
2.64938	9.0622
2.64803	9.10175
2.64667	9.01416
2.64532	9.03681
2.64397	9.0769
2.64263	9.08894
2.64128	9.01841
2.63994	8.94591
2.63859	8.91601
2.63725	8.89287
2.63591	8.91373
2.63457	9.00132
2.63323	9.06835
2.6319	9.12386
2.63056	9.10695
2.62923	8.91852
2.62789	8.98057
2.62656	9.22655
2.62523	9.15892
2.6239	9.03665
2.62258	8.90302
2.62125	8.95386
2.61993	9.07837
2.6186	9.08309
2.61728	9.2395
2.61596	9.29275
2.61464	9.25075
2.61332	9.2228
2.61201	9.08722
2.61069	9.06604
2.60938	9.14583
2.60807	9.2857
2.60675	9.28975
2.60544	9.2426
2.60414	8.99808
2.60283	8.9655
2.60152	9.1209
2.60022	9.35192
2.59891	9.33268
2.59761	9.14827
2.59631	9.09656
2.59501	9.33564
2.59371	9.43966
2.59242	9.18825
2.59112	8.99992
2.58983	8.97678
2.58853	9.00754
2.58724	9.04782
2.58595	9.12453
2.58466	9.12096
2.58338	9.18688
2.58209	9.19769
2.5808	9.14424
2.57952	9.13217
2.57824	9.12062
2.57695	9.17349
2.57567	9.09577
2.5744	9.02983
2.57312	9.19769
2.57184	9.24139
2.57057	9.20654
2.56929	9.23379
2.56802	9.27036
2.56675	9.26106
2.56548	9.19587
2.56421	9.03512
2.56294	8.96978
2.56168	9.14019
2.56041	9.16262
2.55915	9.1823
2.55789	9.15222
2.55662	9.07944
2.55536	9.02898
2.5541	9.05294
2.55285	9.29838
2.55159	9.29849
2.55034	9.17931
2.54908	9.12745
2.54783	9.20826
2.54658	9.2467
2.54533	9.21518
2.54408	9.11529
2.54283	9.00798
2.54159	9.03641
2.54034	9.07451
2.5391	9.0972
2.53785	9.18502
2.53661	9.20763
2.53537	9.15409
2.53413	9.21345
2.53289	9.12537
2.53166	9.03324
2.53042	9.10452
2.52919	9.2431
2.52795	9.31296
2.52672	9.15878
2.52549	9.13116
2.52426	9.17441
2.52303	9.12383
2.52181	9.17739
2.52058	9.28785
2.51936	9.24534
2.51813	9.14001
2.51691	9.12324
2.51569	9.06324
2.51447	9.14211
2.51325	9.28124
2.51203	9.29412
2.51082	9.22141
2.5096	9.15449
2.50839	9.30862
2.50717	9.37024
2.50596	9.2671
2.50475	9.14675
2.50354	9.15078
2.50233	9.26235
2.50113	9.21258
2.49992	9.13874
2.49872	9.16924
2.49751	9.1622
2.49631	9.14577
2.49511	9.14344
2.49391	9.17429
2.49271	9.24642
2.49151	9.35617
2.49031	9.3656
2.48912	9.30648
2.48792	9.28926
2.48673	9.23161
2.48554	9.15409
2.48435	9.18147
2.48316	9.21647
2.48197	9.2688
2.48078	9.31737
2.4796	9.27213
2.47841	9.2289
2.47723	9.30715
2.47604	9.28391
2.47486	9.21071
2.47368	9.26006
2.4725	9.41396
2.47132	9.38919
2.47014	9.36621
2.46897	9.42356
2.46779	9.38363
2.46662	9.36695
2.46545	9.45587
2.46427	9.47143
2.4631	9.38782
2.46193	9.3318
2.46077	9.37349
2.4596	9.34403
2.45843	9.33837
2.45727	9.45738
2.4561	9.44017
2.45494	9.24688
2.45378	9.25781
2.45262	9.38189
2.45146	9.2779
2.4503	9.22709
2.44914	9.23902
2.44799	9.2513
2.44683	9.38879
2.44568	9.48541
2.44452	9.44682
2.44337	9.47935
2.44222	9.50075
2.44107	9.47872
2.43992	9.56173
2.43877	9.54233
2.43763	9.43236
2.43648	9.3142
2.43534	9.21745
2.43419	9.2052
2.43305	9.30756
2.43191	9.46958
2.43077	9.4835
2.42963	9.32177
2.42849	9.24767
2.42736	9.25774
2.42622	9.36813
2.42509	9.39483
2.42395	9.31844
2.42282	9.3928
2.42169	9.43373
2.42056	9.50466
2.41943	9.47253
2.4183	9.43923
2.41717	9.41306
2.41605	9.43244
2.41492	9.49212
2.4138	9.43713
2.41267	9.45031
2.41155	9.48372
2.41043	9.55702
2.40931	9.63072
2.40819	9.57506
2.40707	9.49461
2.40595	9.54958
2.40484	9.59279
2.40372	9.60041
2.40261	9.67292
2.4015	9.72692
2.40039	9.6967
2.39928	9.57576
2.39817	9.50846
2.39706	9.59963
2.39595	9.67841
2.39484	9.70934
2.39374	9.68007
2.39263	9.59451
2.39153	9.63206
2.39043	9.61604
2.38932	9.59848
2.38822	9.67791
2.38712	9.71845
2.38603	9.66965
2.38493	9.57159
2.38383	9.74577
2.38274	9.91555
2.38164	9.76674
2.38055	9.70502
2.37946	9.70891
2.37836	9.83889
2.37727	9.79981
2.37618	9.8995
2.3751	10.0335
2.37401	9.85828
2.37292	9.74514
2.37184	9.80416
2.37075	9.77091
2.36967	9.75243
2.36859	9.6301
2.3675	9.58283
2.36642	9.62029
2.36534	9.72241
2.36427	9.69049
2.36319	9.66865
2.36211	9.89418
2.36104	9.93339
2.35996	9.67714
2.35889	9.56798
2.35781	9.62389
2.35674	9.6408
2.35567	9.59901
2.3546	9.61146
2.35353	9.566
2.35247	9.61221
2.3514	9.58533
2.35033	9.5082
2.34927	9.63242
2.3482	9.63008
2.34714	9.41147
2.34608	9.43615
2.34502	9.55655
2.34396	9.61851
2.3429	9.5923
2.34184	9.6627
2.34078	9.7887
2.33973	9.70035
2.33867	9.58128
2.33762	9.6221
2.33656	9.71192
2.33551	9.71086
2.33446	9.71396
2.33341	9.58121
2.33236	9.56817
2.33131	9.69285
2.33026	9.69035
2.32922	9.57832
2.32817	9.69556
2.32712	9.76011
2.32608	9.64616
2.32504	9.65407
2.324	9.72472
2.32295	9.64765
2.32191	9.68185
2.32087	9.8746
2.31984	9.94407
2.3188	9.89579
2.31776	10.0028
2.31673	9.93071
2.31569	9.75334
2.31466	9.95181
2.31362	10.0016
2.31259	9.91809
2.31156	9.93206
2.31053	9.85737
2.3095	9.88175
2.30847	9.98245
2.30745	9.96283
2.30642	9.93289
2.3054	9.81182
2.30437	9.8562
2.30335	10.0039
2.30232	10.0142
2.3013	9.89983
2.30028	9.88544
2.29926	9.89457
2.29824	9.89192
2.29722	9.93352
2.29621	9.95676
2.29519	9.97164
2.29417	10.0483
2.29316	10.1819
2.29215	10.0637
2.29113	9.95125
2.29012	10.0015
2.28911	10.0292
2.2881	10.086
2.28709	10.015
2.28608	9.97366
2.28507	10.3058
2.28407	10.3485
2.28306	9.97828
2.28206	10.0065
2.28105	10.0685
2.28005	9.95741
2.27905	10.0887
2.27805	10.2292
2.27705	10.1443
2.27605	10.1653
2.27505	10.2885
2.27405	10.4357
2.27305	10.4222
2.27206	10.2798
2.27106	10.1664
2.27007	10.1749
2.26907	10.1949
2.26808	10.1466
2.26709	10.1898
2.2661	10.2802
2.26511	10.2817
2.26412	10.2418
2.26313	10.1501
2.26214	10.0173
2.26116	10.0297
2.26017	10.1717
2.25919	10.2572
2.2582	10.2953
2.25722	10.4594
2.25624	10.4815
2.25526	10.4818
2.25428	10.2632
2.2533	10.1528
2.25232	10.2971
2.25134	10.3889
2.25036	10.363
2.24939	10.2444
2.24841	10.3281
2.24744	10.3782
2.24646	10.4115
2.24549	10.4219
2.24452	10.3113
2.24355	10.3685
2.24257	10.5647
2.24161	10.4918
2.24064	10.6244
2.23967	10.5982
2.2387	10.4466
2.23774	10.3882
2.23677	10.423
2.23581	10.5545
2.23484	10.4366
2.23388	10.2465
2.23292	10.3469
2.23196	10.4877
2.231	10.5547
2.23004	10.5835
2.22908	10.6549
2.22812	10.6044
2.22716	10.4054
2.22621	10.3327
2.22525	10.4729
2.2243	10.4794
2.22334	10.5566
2.22239	10.6479
2.22144	10.6659
2.22049	10.4765
2.21953	10.2855
2.21859	10.4158
2.21764	10.5503
2.21669	10.4548
2.21574	10.5618
2.21479	10.7281
2.21385	10.5661
2.2129	10.4287
2.21196	10.4626
2.21102	10.535
2.21007	10.6899
2.20913	10.7391
2.20819	10.7278
2.20725	10.5503
2.20631	10.3729
2.20537	10.4686
2.20444	10.5389
2.2035	10.6107
2.20256	10.6492
2.20163	10.4187
2.20069	10.3431
2.19976	10.5298
2.19883	10.5672
2.19789	10.6091
2.19696	10.8619
2.19603	10.8559
2.1951	10.6461
2.19417	10.541
2.19325	10.4288
2.19232	10.3694
2.19139	10.4541
2.19047	10.4737
2.18954	10.4471
2.18862	10.5323
2.18769	10.7937
2.18677	10.6943
2.18585	10.5844
2.18493	10.574
2.18401	10.4886
2.18309	10.405
2.18217	10.7352
2.18125	11.0138
2.18033	10.9477
2.17942	10.6056
2.1785	10.6305
2.17759	10.7985
2.17667	10.8203
2.17576	10.6473
2.17485	10.6645
2.17393	10.7366
2.17302	10.7643
2.17211	10.7142
2.1712	10.6014
2.17029	10.7273
2.16939	10.7663
2.16848	10.7897
2.16757	10.6807
2.16667	10.5911
2.16576	10.7875
2.16486	10.8945
2.16395	10.6616
2.16305	10.5608
2.16215	10.7084
2.16125	10.8745
2.16035	10.7437
2.15945	10.7343
2.15855	10.683
2.15765	10.7776
2.15675	10.813
2.15586	10.6558
2.15496	10.7645
2.15406	10.8669
2.15317	10.6388
2.15228	10.5826
2.15138	10.7815
2.15049	10.889
2.1496	10.8808
2.14871	10.7432
2.14782	10.5707
2.14693	10.553
2.14604	10.7422
2.14515	10.8637
2.14427	10.7937
2.14338	10.7464
2.14249	10.6684
2.14161	10.6858
2.14072	10.8105
2.13984	10.7651
2.13896	10.8086
2.13808	10.8026
2.13719	10.7019
2.13631	10.822
2.13543	10.9634
2.13455	10.7946
2.13368	10.5599
2.1328	10.6502
2.13192	10.7748
2.13105	10.628
2.13017	10.6125
2.1293	10.8033
2.12842	10.962
2.12755	10.7489
2.12668	10.7503
2.1258	10.8182
2.12493	10.7589
2.12406	10.6524
2.12319	10.8891
2.12232	10.9575
2.12145	10.8998
2.12059	11.0373
2.11972	10.935
2.11885	10.7504
2.11799	10.6925
2.11712	10.7432
2.11626	10.7277
2.1154	10.7881
2.11453	10.7789
2.11367	10.836
2.11281	10.968
2.11195	10.8321
2.11109	10.7312
2.11023	10.6802
2.10937	10.7925
2.10851	10.7643
2.10766	10.8234
2.1068	10.923
2.10594	10.925
2.10509	10.9835
2.10423	10.9416
2.10338	10.906
2.10253	10.9954
2.10168	11.0621
2.10082	10.8871
2.09997	10.8959
2.09912	11.04
2.09827	11.0936
2.09742	11.0038
2.09658	10.8593
2.09573	11.175
2.09488	11.4397
2.09404	11.1452
2.09319	10.7712
2.09235	10.6535
2.0915	10.7471
2.09066	10.8753
2.08982	10.8467
2.08897	10.8262
2.08813	10.684
2.08729	10.808
2.08645	10.9719
2.08561	11.1248
2.08477	11.0645
2.08394	11.0732
2.0831	11.2277
2.08226	11.1526
2.08143	10.9923
2.08059	11.0931
2.07976	11.4179
2.07892	10.9714
2.07809	10.6807
2.07726	11.2453
2.07643	11.0285
2.07559	10.7624
2.07476	10.8298
2.07393	10.5923
2.0731	10.3856
2.07228	10.3775
2.07145	10.6097
2.07062	10.9589
2.06979	11.1294
2.06897	11.132
2.06814	11.0447
2.06732	11.1877
2.06649	11.3394
2.06567	11.3644
2.06485	11.4538
2.06403	11.4452
2.0632	11.2299
2.06238	11.2836
2.06156	11.0382
2.06074	10.8991
2.05993	11.0043
2.05911	10.9202
2.05829	10.8569
2.05747	10.8671
2.05666	10.842
2.05584	10.8866
2.05503	10.8636
2.05421	10.7563
2.0534	10.8328
2.05259	11.0522
2.05177	11.1848
2.05096	11.0386
2.05015	10.8583
2.04934	10.8095
2.04853	10.9454
2.04772	11.135
2.04691	11.2562
2.04611	11.0522
2.0453	10.859
2.04449	10.9479
2.04369	11.0634
2.04288	10.8781
2.04208	11.1415
2.04127	11.3716
2.04047	11.3645
2.03967	11.2616
2.03886	11.1071
2.03806	10.7951
2.03726	10.7741
2.03646	11.1416
2.03566	11.2614
2.03486	10.9888
2.03407	10.912
2.03327	11.1406
2.03247	10.9786
2.03167	10.7807
2.03088	10.9769
2.03008	11.2171
2.02929	10.7922
2.0285	10.5456
2.0277	10.7954
2.02691	11.2151
2.02612	11.2754
2.02533	11.2336
2.02453	11.4854
2.02374	11.2192
2.02295	10.7777
2.02217	10.9935
2.02138	11.3357
2.02059	11.2362
2.0198	11.1276
2.01902	11.0707
2.01823	10.7435
2.01744	10.5091
2.01666	10.8825
2.01588	11.0386
2.01509	10.778
2.01431	10.845
2.01353	11.0764
2.01275	10.8878
2.01196	10.8937
2.01118	11.2062
2.0104	11.1502
2.00963	11.136
2.00885	11.1252
2.00807	10.9053
2.00729	10.7917
2.00651	10.8315
2.00574	10.8525
2.00496	10.9297
2.00419	11.0536
2.00341	10.9897
2.00264	10.9787
2.00187	11.1132
2.00109	10.9651
2.00032	10.6554
