Name: Biotite Granite
Type: Rock
Class: Igneous
Subclass:  Felsic 
Particle Size: Solid surface
Sample No.: Ward10.txt
Owner: JPL
Wavelength range:  VNIR SWIR IR
Origin: Ward's Collection of American Rocks.  Sample locality - Woodbury, Washington County, Vermont.
Collected by:  Ward's Natural Science
Description: A gray, medium-grained rock consisting of feldspar, quartz,
biotite and muscovite.
Geologic age - Devonian.



Measurement: Hemispherical reflectance
First Column: X
Second Column: Y
X Units: Wavelength (micrometers)
Y Units: Reflectance (percent)
First X Value: 2.500
Last X Value: 0.400
Number of X Values: 2101
Additional information: None

2.500  29.883352
2.499  29.784592
2.498  29.986622
2.497  29.634407
2.496  29.736185
2.495  29.759566
2.494  29.978845
2.493  29.820342
2.492  29.971350
2.491  29.960488
2.490  30.000055
2.489  29.812226
2.488  29.905326
2.487  29.967723
2.486  29.993760
2.485  29.895777
2.484  30.068732
2.483  30.052465
2.482  30.135488
2.481  29.992214
2.480  30.183167
2.479  30.103205
2.478  30.120287
2.477  30.045264
2.476  30.151842
2.475  30.214413
2.474  30.240033
2.473  30.198571
2.472  30.260915
2.471  30.286903
2.470  30.440238
2.469  30.313571
2.468  30.400105
2.467  30.337070
2.466  30.484014
2.465  30.381245
2.464  30.422955
2.463  30.469833
2.462  30.524656
2.461  30.407890
2.460  30.542652
2.459  30.432584
2.458  30.509396
2.457  30.497298
2.456  30.674052
2.455  30.610782
2.454  30.718099
2.453  30.640405
2.452  30.865259
2.451  30.768690
2.450  30.759338
2.449  30.751044
2.448  30.845760
2.447  30.790973
2.446  30.853422
2.445  30.768008
2.444  30.879506
2.443  30.949086
2.442  30.917908
2.441  30.973190
2.440  31.075501
2.439  30.990617
2.438  31.068728
2.437  30.973541
2.436  31.072177
2.435  31.148637
2.434  31.284400
2.433  31.193285
2.432  31.312187
2.431  31.159098
2.430  31.277950
2.429  31.213592
2.428  31.362412
2.427  31.359483
2.426  31.423950
2.425  31.349521
2.424  31.475359
2.423  31.485282
2.422  31.534149
2.421  31.533021
2.420  31.601315
2.419  31.575101
2.418  31.704147
2.417  31.622559
2.416  31.768974
2.415  31.697562
2.414  31.687548
2.413  31.729570
2.412  31.816432
2.411  31.762992
2.410  31.850096
2.409  31.823636
2.408  31.941645
2.407  31.867137
2.406  31.948090
2.405  31.958985
2.404  31.991674
2.403  32.010313
2.402  32.044370
2.401  32.000389
2.400  32.026516
2.399  32.012620
2.398  32.079352
2.397  32.127916
2.396  32.175274
2.395  32.099034
2.394  32.148328
2.393  32.151312
2.392  32.165911
2.391  32.199633
2.390  32.279436
2.389  32.264959
2.388  32.284781
2.387  32.318714
2.386  32.422953
2.385  32.385077
2.384  32.461545
2.383  32.455981
2.382  32.536629
2.381  32.553661
2.380  32.606199
2.379  32.610600
2.378  32.669765
2.377  32.699372
2.376  32.732799
2.375  32.771003
2.374  32.779106
2.373  32.769133
2.372  32.794029
2.371  32.813000
2.370  32.896320
2.369  32.887178
2.368  32.861570
2.367  32.877368
2.366  32.928295
2.365  32.959315
2.364  32.952934
2.363  32.889898
2.362  32.916964
2.361  32.951164
2.360  32.940397
2.359  32.946949
2.358  32.933507
2.357  32.911067
2.356  32.922518
2.355  32.967300
2.354  32.988615
2.353  32.959266
2.352  32.941110
2.351  32.896628
2.350  32.880652
2.349  32.877850
2.348  32.899106
2.347  32.966452
2.346  32.973697
2.345  32.933597
2.344  32.898130
2.343  32.948114
2.342  33.004970
2.341  33.041353
2.340  32.995660
2.339  33.050065
2.338  33.073601
2.337  33.062457
2.336  33.054242
2.335  33.096932
2.334  33.127181
2.333  33.159698
2.332  33.172324
2.331  33.216774
2.330  33.189621
2.329  33.223613
2.328  33.243660
2.327  33.355755
2.326  33.359371
2.325  33.394485
2.324  33.457401
2.323  33.532042
2.322  33.512267
2.321  33.602664
2.320  33.682849
2.319  33.780357
2.318  33.765661
2.317  33.770548
2.316  33.778409
2.315  33.959980
2.314  33.961699
2.313  33.972696
2.312  34.013225
2.311  34.099289
2.310  34.097422
2.309  34.156937
2.308  34.175839
2.307  34.268261
2.306  34.306282
2.305  34.392896
2.304  34.396427
2.303  34.474618
2.302  34.454321
2.301  34.569783
2.300  34.529007
2.299  34.614775
2.298  34.661907
2.297  34.746912
2.296  34.737172
2.295  34.831380
2.294  34.843192
2.293  34.861114
2.292  34.868454
2.291  34.952394
2.290  34.972793
2.289  35.052658
2.288  35.072633
2.287  35.076948
2.286  35.053670
2.285  35.161784
2.284  35.193034
2.283  35.267914
2.282  35.215852
2.281  35.358911
2.280  35.282331
2.279  35.349653
2.278  35.311273
2.277  35.413256
2.276  35.339178
2.275  35.360185
2.274  35.291880
2.273  35.455208
2.272  35.394111
2.271  35.484654
2.270  35.325629
2.269  35.452101
2.268  35.354717
2.267  35.435717
2.266  35.394854
2.265  35.416685
2.264  35.317428
2.263  35.472507
2.262  35.305909
2.261  35.377998
2.260  35.319909
2.259  35.348440
2.258  35.314756
2.257  35.416030
2.256  35.341827
2.255  35.438289
2.254  35.298169
2.253  35.392536
2.252  35.377842
2.251  35.480410
2.250  35.447620
2.249  35.494024
2.248  35.390225
2.247  35.532291
2.246  35.447573
2.245  35.525468
2.244  35.564860
2.243  35.692308
2.242  35.609662
2.241  35.692599
2.240  35.663333
2.239  35.789340
2.238  35.800802
2.237  35.817373
2.236  35.882047
2.235  35.891333
2.234  35.868825
2.233  35.962933
2.232  35.924819
2.231  36.033809
2.230  36.020544
2.229  36.080576
2.228  36.063692
2.227  36.048132
2.226  36.030247
2.225  36.099764
2.224  36.076711
2.223  36.189679
2.222  36.092368
2.221  36.128682
2.220  36.005938
2.219  36.293124
2.218  36.111569
2.217  36.134935
2.216  36.124715
2.215  36.151413
2.214  36.162239
2.213  36.237425
2.212  36.138248
2.211  36.168015
2.210  36.233726
2.209  36.116417
2.208  36.104625
2.207  36.247202
2.206  36.122235
2.205  36.244354
2.204  36.087686
2.203  36.157127
2.202  36.072689
2.201  36.223051
2.200  36.202067
2.199  36.184565
2.198  36.200605
2.197  36.242043
2.196  36.161158
2.195  36.222893
2.194  36.139802
2.193  36.254037
2.192  36.154785
2.191  36.243186
2.190  36.238890
2.189  36.260031
2.188  36.209316
2.187  36.380130
2.186  36.246786
2.185  36.326904
2.184  36.252593
2.183  36.378842
2.182  36.321241
2.181  36.399503
2.180  36.300226
2.179  36.363010
2.178  36.434860
2.177  36.424241
2.176  36.378793
2.175  36.459035
2.174  36.489691
2.173  36.503366
2.172  36.509904
2.171  36.565306
2.170  36.486373
2.169  36.537653
2.168  36.618418
2.167  36.660696
2.166  36.526929
2.165  36.601365
2.164  36.585023
2.163  36.651578
2.162  36.621725
2.161  36.616464
2.160  36.633154
2.159  36.724015
2.158  36.718506
2.157  36.758431
2.156  36.647629
2.155  36.721494
2.154  36.718129
2.153  36.736602
2.152  36.709606
2.151  36.745958
2.150  36.775903
2.149  36.828629
2.148  36.773086
2.147  36.762701
2.146  36.751010
2.145  36.863235
2.144  36.754859
2.143  36.758361
2.142  36.672968
2.141  36.703400
2.140  36.739385
2.139  36.719446
2.138  36.627766
2.137  36.672818
2.136  36.682150
2.135  36.704756
2.134  36.625063
2.133  36.627590
2.132  36.581511
2.131  36.625275
2.130  36.588583
2.129  36.593164
2.128  36.576970
2.127  36.567017
2.126  36.519430
2.125  36.515206
2.124  36.458804
2.123  36.480459
2.122  36.438127
2.121  36.466077
2.120  36.396506
2.119  36.355179
2.118  36.329712
2.117  36.333185
2.116  36.286861
2.115  36.298027
2.114  36.284181
2.113  36.307805
2.112  36.203573
2.111  36.185064
2.110  36.186839
2.109  36.194252
2.108  36.139319
2.107  36.140028
2.106  36.098992
2.105  36.125090
2.104  36.097612
2.103  36.079657
2.102  36.045001
2.101  36.032117
2.100  36.013651
2.099  36.006193
2.098  35.981746
2.097  36.025453
2.096  36.012957
2.095  36.038901
2.094  36.002179
2.093  35.991775
2.092  36.020769
2.091  36.086533
2.090  36.084631
2.089  36.110077
2.088  36.111097
2.087  36.075223
2.086  36.022990
2.085  36.046694
2.084  36.122782
2.083  36.109793
2.082  36.088400
2.081  36.123670
2.080  36.131897
2.079  36.131419
2.078  36.123711
2.077  36.128120
2.076  36.137944
2.075  36.129207
2.074  36.141007
2.073  36.142929
2.072  36.136696
2.071  36.160231
2.070  36.133915
2.069  36.143017
2.068  36.179437
2.067  36.184109
2.066  36.140811
2.065  36.079363
2.064  36.054530
2.063  36.066163
2.062  36.138286
2.061  36.135672
2.060  36.119681
2.059  36.069747
2.058  36.033440
2.057  36.090637
2.056  36.131952
2.055  36.116038
2.054  36.130660
2.053  36.091758
2.052  36.076645
2.051  36.074944
2.050  36.082020
2.049  36.039074
2.048  36.035349
2.047  36.018040
2.046  36.040594
2.045  36.113378
2.044  36.092227
2.043  36.023695
2.042  36.026182
2.041  35.953854
2.040  35.986117
2.039  35.964543
2.038  36.041192
2.037  36.011995
2.036  35.960471
2.035  35.917790
2.034  35.935039
2.033  35.882496
2.032  35.813759
2.031  35.846938
2.030  35.886709
2.029  35.779658
2.028  35.857671
2.027  35.778284
2.026  35.782296
2.025  35.752465
2.024  35.739022
2.023  35.697280
2.022  35.712397
2.021  35.637429
2.020  35.674778
2.019  35.601839
2.018  35.612992
2.017  35.579335
2.016  35.589523
2.015  35.560563
2.014  35.518629
2.013  35.429514
2.012  35.455048
2.011  35.403909
2.010  35.423038
2.009  35.435531
2.008  35.400532
2.007  35.326578
2.006  35.351052
2.005  35.218498
2.004  35.281540
2.003  35.231438
2.002  35.272684
2.001  35.204730
2.000  35.172802
1.999  35.078696
1.998  35.115328
1.997  35.029273
1.996  35.005522
1.995  34.960024
1.994  35.032940
1.993  34.957742
1.992  34.970258
1.991  34.726050
1.990  34.825340
1.989  34.762296
1.988  34.764587
1.987  34.644127
1.986  34.682206
1.985  34.613865
1.984  34.640738
1.983  34.493359
1.982  34.528801
1.981  34.481452
1.980  34.539466
1.979  34.373947
1.978  34.372933
1.977  34.239082
1.976  34.338846
1.975  34.262102
1.974  34.256348
1.973  34.155076
1.972  34.179576
1.971  34.088632
1.970  34.094377
1.969  34.041908
1.968  34.067768
1.967  33.875556
1.966  33.948773
1.965  33.776522
1.964  33.794724
1.963  33.777639
1.962  33.734104
1.961  33.661601
1.960  33.731740
1.959  33.634208
1.958  33.567528
1.957  33.476973
1.956  33.482689
1.955  33.323724
1.954  33.262270
1.953  33.226858
1.952  33.228138
1.951  33.091910
1.950  33.195352
1.949  32.965956
1.948  33.015753
1.947  32.894177
1.946  32.849234
1.945  32.749882
1.944  32.715265
1.943  32.700744
1.942  32.581434
1.941  32.490300
1.940  32.505805
1.939  32.299158
1.938  32.364193
1.937  32.282564
1.936  32.143535
1.935  32.103951
1.934  32.097190
1.933  32.047761
1.932  32.000164
1.931  31.912711
1.930  31.953882
1.929  31.765185
1.928  31.854074
1.927  31.741901
1.926  31.697167
1.925  31.753432
1.924  31.736081
1.923  31.643700
1.922  31.717476
1.921  31.657259
1.920  31.806019
1.919  31.681087
1.918  31.776438
1.917  31.816390
1.916  31.760694
1.915  31.842793
1.914  31.882526
1.913  31.960277
1.912  32.139156
1.911  32.156209
1.910  32.312852
1.909  32.374278
1.908  32.650431
1.907  32.611919
1.906  32.816110
1.905  33.017976
1.904  33.241028
1.903  33.360216
1.902  33.627604
1.901  33.705701
1.900  33.907831
1.899  34.079637
1.898  34.232501
1.897  34.436518
1.896  34.647176
1.895  34.805710
1.894  34.968154
1.893  34.977052
1.892  35.158469
1.891  35.271871
1.890  35.426780
1.889  35.481975
1.888  35.646042
1.887  35.595221
1.886  35.697650
1.885  35.855500
1.884  35.956204
1.883  35.914022
1.882  36.036366
1.881  36.029518
1.880  36.204467
1.879  36.199428
1.878  36.295278
1.877  36.200204
1.876  36.211183
1.875  36.226656
1.874  36.285393
1.873  36.254358
1.872  36.270094
1.871  36.254373
1.870  36.375335
1.869  36.385122
1.868  36.483572
1.867  36.510584
1.866  36.554764
1.865  36.575781
1.864  36.603588
1.863  36.650982
1.862  36.708462
1.861  36.632164
1.860  36.652673
1.859  36.619000
1.858  36.662101
1.857  36.614560
1.856  36.682702
1.855  36.653824
1.854  36.730493
1.853  36.750819
1.852  36.739308
1.851  36.698354
1.850  36.684634
1.849  36.678886
1.848  36.759932
1.847  36.719274
1.846  36.757190
1.845  36.737491
1.844  36.791937
1.843  36.785491
1.842  36.811659
1.841  36.733172
1.840  36.726874
1.839  36.719987
1.838  36.739545
1.837  36.737417
1.836  36.754477
1.835  36.761662
1.834  36.843871
1.833  36.776388
1.832  36.785322
1.831  36.784581
1.830  36.824860
1.829  36.835821
1.828  36.873906
1.827  36.865340
1.826  36.881117
1.825  36.858667
1.824  36.849417
1.823  36.819536
1.822  36.815611
1.821  36.803099
1.820  36.868882
1.819  36.868276
1.818  36.893794
1.817  36.852608
1.816  36.891524
1.815  36.913682
1.814  36.917082
1.813  36.903121
1.812  36.884983
1.811  36.894396
1.810  36.914173
1.809  36.898400
1.808  36.924584
1.807  36.883712
1.806  36.911351
1.805  36.892651
1.804  36.895564
1.803  36.926637
1.802  36.903749
1.801  36.886677
1.800  36.910557
1.799  36.915495
1.798  36.925802
1.797  36.913942
1.796  36.885580
1.795  36.864858
1.794  36.886666
1.793  36.899304
1.792  36.903110
1.791  36.890623
1.790  36.867433
1.789  36.833717
1.788  36.897581
1.787  36.918602
1.786  36.860305
1.785  36.821695
1.784  36.784447
1.783  36.834731
1.782  36.857217
1.781  36.800065
1.780  36.780537
1.779  36.783973
1.778  36.747586
1.777  36.727820
1.776  36.754997
1.775  36.803138
1.774  36.789335
1.773  36.751941
1.772  36.719852
1.771  36.712915
1.770  36.714796
1.769  36.703592
1.768  36.746034
1.767  36.734423
1.766  36.718337
1.765  36.787949
1.764  36.742277
1.763  36.784403
1.762  36.719162
1.761  36.750873
1.760  36.755441
1.759  36.787985
1.758  36.737599
1.757  36.729971
1.756  36.740521
1.755  36.752500
1.754  36.786248
1.753  36.780601
1.752  36.719273
1.751  36.795701
1.750  36.765848
1.749  36.733178
1.748  36.697606
1.747  36.711968
1.746  36.714550
1.745  36.756588
1.744  36.733718
1.743  36.736340
1.742  36.714364
1.741  36.778753
1.740  36.765059
1.739  36.784210
1.738  36.710536
1.737  36.739138
1.736  36.669731
1.735  36.726465
1.734  36.693931
1.733  36.743976
1.732  36.719839
1.731  36.749623
1.730  36.733329
1.729  36.734876
1.728  36.730401
1.727  36.734770
1.726  36.772219
1.725  36.772315
1.724  36.716938
1.723  36.732656
1.722  36.684699
1.721  36.735597
1.720  36.744931
1.719  36.765778
1.718  36.718653
1.717  36.703734
1.716  36.688149
1.715  36.695802
1.714  36.742231
1.713  36.750241
1.712  36.721132
1.711  36.763777
1.710  36.722019
1.709  36.742590
1.708  36.700079
1.707  36.774852
1.706  36.720894
1.705  36.746166
1.704  36.725484
1.703  36.794779
1.702  36.730396
1.701  36.716472
1.700  36.692802
1.699  36.494071
1.698  36.640538
1.697  36.729649
1.696  36.768517
1.695  36.806569
1.694  36.746400
1.693  36.918281
1.692  36.726833
1.691  36.768264
1.690  36.727267
1.689  36.729038
1.688  36.728799
1.687  36.783407
1.686  36.740072
1.685  36.682321
1.684  36.798556
1.683  36.799390
1.682  36.773243
1.681  36.829840
1.680  36.779609
1.679  36.811303
1.678  36.774067
1.677  36.794034
1.676  36.730251
1.675  36.812127
1.674  36.746709
1.673  36.845856
1.672  36.771890
1.671  36.837498
1.670  36.707713
1.669  36.827206
1.668  36.674894
1.667  36.845018
1.666  36.724305
1.665  36.788061
1.664  36.773547
1.663  36.952808
1.662  36.773091
1.661  36.901621
1.660  36.748023
1.659  36.812878
1.658  36.743534
1.657  36.814367
1.656  36.745104
1.655  36.885008
1.654  36.760604
1.653  36.880265
1.652  36.867634
1.651  36.827832
1.650  36.754961
1.649  36.939830
1.648  36.760723
1.647  36.838620
1.646  36.803123
1.645  36.871890
1.644  36.736104
1.643  36.837829
1.642  36.860888
1.641  36.710556
1.640  36.865772
1.639  36.779168
1.638  36.787099
1.637  36.790882
1.636  36.725200
1.635  36.836575
1.634  36.701691
1.633  36.769559
1.632  36.719650
1.631  36.851855
1.630  36.742435
1.629  36.827359
1.628  36.758342
1.627  36.773454
1.626  36.735089
1.625  36.811319
1.624  36.669015
1.623  36.735218
1.622  36.728057
1.621  36.766546
1.620  36.694154
1.619  36.828169
1.618  36.697592
1.617  36.785901
1.616  36.753492
1.615  36.759706
1.614  36.708758
1.613  36.743953
1.612  36.646798
1.611  36.764574
1.610  36.696965
1.609  36.789929
1.608  36.661075
1.607  36.754914
1.606  36.683015
1.605  36.714269
1.604  36.702771
1.603  36.705609
1.602  36.685321
1.601  36.669996
1.600  36.595727
1.599  36.760899
1.598  36.728111
1.597  36.748873
1.596  36.663743
1.595  36.744749
1.594  36.683810
1.593  36.731451
1.592  36.654488
1.591  36.675861
1.590  36.584741
1.589  36.633821
1.588  36.588236
1.587  36.684457
1.586  36.647590
1.585  36.692202
1.584  36.634075
1.583  36.678246
1.582  36.639183
1.581  36.589226
1.580  36.605156
1.579  36.626487
1.578  36.592830
1.577  36.640536
1.576  36.587566
1.575  36.632451
1.574  36.588036
1.573  36.613594
1.572  36.546092
1.571  36.585422
1.570  36.563148
1.569  36.522423
1.568  36.515059
1.567  36.573739
1.566  36.450616
1.565  36.568034
1.564  36.542403
1.563  36.568621
1.562  36.535139
1.561  36.570566
1.560  36.536977
1.559  36.537794
1.558  36.493538
1.557  36.515398
1.556  36.451525
1.555  36.480676
1.554  36.473336
1.553  36.536415
1.552  36.483331
1.551  36.498319
1.550  36.477171
1.549  36.523677
1.548  36.438480
1.547  36.459669
1.546  36.446976
1.545  36.470941
1.544  36.451923
1.543  36.471501
1.542  36.398437
1.541  36.460206
1.540  36.434097
1.539  36.424348
1.538  36.398413
1.537  36.463576
1.536  36.451147
1.535  36.435959
1.534  36.435060
1.533  36.411248
1.532  36.325026
1.531  36.391595
1.530  36.376021
1.529  36.363732
1.528  36.346691
1.527  36.452208
1.526  36.413306
1.525  36.359733
1.524  36.399088
1.523  36.395011
1.522  36.386583
1.521  36.364642
1.520  36.291965
1.519  36.321811
1.518  36.336809
1.517  36.321687
1.516  36.269329
1.515  36.348514
1.514  36.373792
1.513  36.308168
1.512  36.284501
1.511  36.272548
1.510  36.249099
1.509  36.274877
1.508  36.241449
1.507  36.256945
1.506  36.264929
1.505  36.220434
1.504  36.246323
1.503  36.205016
1.502  36.184659
1.501  36.209329
1.500  36.188995
1.499  36.128574
1.498  36.109439
1.497  36.113045
1.496  36.098144
1.495  36.144490
1.494  36.227807
1.493  36.181250
1.492  36.085764
1.491  36.031545
1.490  36.025193
1.489  36.025798
1.488  36.018843
1.487  35.998794
1.486  36.018469
1.485  35.975498
1.484  35.958963
1.483  35.909655
1.482  35.881647
1.481  35.911014
1.480  35.933430
1.479  35.886245
1.478  35.925787
1.477  35.946227
1.476  35.880854
1.475  35.798711
1.474  35.802081
1.473  35.823666
1.472  35.896327
1.471  35.823777
1.470  35.788743
1.469  35.751005
1.468  35.803009
1.467  35.770266
1.466  35.752985
1.465  35.754413
1.464  35.802963
1.463  35.814974
1.462  35.751583
1.461  35.750947
1.460  35.763174
1.459  35.707098
1.458  35.752662
1.457  35.726217
1.456  35.715798
1.455  35.626342
1.454  35.663289
1.453  35.632960
1.452  35.647928
1.451  35.672020
1.450  35.659846
1.449  35.581330
1.448  35.603255
1.447  35.623823
1.446  35.625363
1.445  35.541058
1.444  35.557999
1.443  35.542296
1.442  35.535523
1.441  35.510836
1.440  35.521781
1.439  35.467209
1.438  35.448944
1.437  35.422104
1.436  35.440168
1.435  35.354811
1.434  35.417594
1.433  35.362473
1.432  35.381745
1.431  35.327790
1.430  35.397105
1.429  35.333826
1.428  35.441985
1.427  35.374972
1.426  35.350496
1.425  35.323313
1.424  35.292112
1.423  35.247107
1.422  35.350375
1.421  35.316390
1.420  35.314768
1.419  35.245115
1.418  35.294028
1.417  35.276532
1.416  35.274163
1.415  35.236299
1.414  35.249793
1.413  35.292156
1.412  35.321847
1.411  35.372554
1.410  35.298317
1.409  35.359240
1.408  35.362366
1.407  35.349512
1.406  35.385774
1.405  35.454286
1.404  35.532145
1.403  35.450024
1.402  35.477175
1.401  35.479172
1.400  35.520057
1.399  35.510051
1.398  35.565543
1.397  35.570167
1.396  35.699211
1.395  35.543182
1.394  35.658238
1.393  35.632578
1.392  35.762958
1.391  35.732067
1.390  35.797041
1.389  35.720972
1.388  35.788304
1.387  35.746944
1.386  35.896196
1.385  35.766261
1.384  35.934656
1.383  35.762205
1.382  35.815677
1.381  35.803830
1.380  35.980124
1.379  35.912765
1.378  35.940070
1.377  35.993538
1.376  35.944138
1.375  35.914139
1.374  35.997054
1.373  35.998766
1.372  35.979895
1.371  35.963128
1.370  35.999480
1.369  35.938317
1.368  35.951015
1.367  35.985018
1.366  36.068727
1.365  35.987783
1.364  36.039843
1.363  35.943694
1.362  35.990153
1.361  35.857752
1.360  36.013646
1.359  35.903866
1.358  36.025236
1.357  36.028622
1.356  36.147691
1.355  35.783402
1.354  36.094364
1.353  36.003430
1.352  36.033777
1.351  36.021074
1.350  36.155140
1.349  35.946211
1.348  36.007067
1.347  36.036099
1.346  36.049454
1.345  35.963974
1.344  36.120687
1.343  35.971369
1.342  36.023892
1.341  36.056141
1.340  36.029030
1.339  35.990004
1.338  36.073978
1.337  36.019190
1.336  36.035401
1.335  35.952058
1.334  36.007491
1.333  35.982181
1.332  36.084912
1.331  35.897704
1.330  36.135590
1.329  36.010693
1.328  36.033095
1.327  36.026018
1.326  36.021217
1.325  36.023098
1.324  36.031279
1.323  35.971164
1.322  36.029526
1.321  35.997063
1.320  36.033858
1.319  35.988999
1.318  36.003441
1.317  36.002143
1.316  36.043824
1.315  36.018925
1.314  36.028522
1.313  36.037690
1.312  36.073358
1.311  35.955565
1.310  36.074259
1.309  36.037453
1.308  36.029441
1.307  35.961327
1.306  36.045192
1.305  35.981955
1.304  36.014476
1.303  36.062626
1.302  36.093994
1.301  36.056220
1.300  36.028207
1.299  36.004503
1.298  36.004994
1.297  35.976180
1.296  36.057320
1.295  36.061174
1.294  36.046009
1.293  36.005150
1.292  36.005001
1.291  35.924132
1.290  36.036737
1.289  36.033417
1.288  36.050437
1.287  35.995299
1.286  35.982061
1.285  35.991149
1.284  36.070046
1.283  35.960821
1.282  36.061701
1.281  36.033015
1.280  36.025579
1.279  36.046901
1.278  36.024871
1.277  35.999574
1.276  36.043528
1.275  35.983076
1.274  36.085720
1.273  36.077692
1.272  36.055613
1.271  35.999180
1.270  36.054466
1.269  35.984859
1.268  36.063086
1.267  36.043693
1.266  36.042296
1.265  35.996934
1.264  36.080733
1.263  36.031520
1.262  36.046376
1.261  36.012721
1.260  36.030577
1.259  36.021746
1.258  36.103735
1.257  36.076471
1.256  36.095489
1.255  36.119274
1.254  36.118084
1.253  36.061516
1.252  36.106544
1.251  36.078858
1.250  36.076351
1.249  36.059851
1.248  36.083458
1.247  36.096168
1.246  36.092494
1.245  36.081338
1.244  36.126246
1.243  36.090798
1.242  36.113385
1.241  36.107145
1.240  36.084363
1.239  36.064740
1.238  36.127863
1.237  36.096212
1.236  36.131101
1.235  36.108173
1.234  36.140614
1.233  36.126739
1.232  36.161569
1.231  36.151019
1.230  36.126457
1.229  36.152810
1.228  36.165853
1.227  36.131203
1.226  36.151092
1.225  36.158757
1.224  36.126095
1.223  36.118339
1.222  36.153447
1.221  36.154074
1.220  36.146608
1.219  36.164207
1.218  36.182637
1.217  36.190558
1.216  36.187702
1.215  36.165262
1.214  36.205038
1.213  36.198336
1.212  36.170367
1.211  36.194438
1.210  36.221109
1.209  36.252114
1.208  36.224754
1.207  36.198486
1.206  36.191327
1.205  36.235497
1.204  36.240236
1.203  36.256895
1.202  36.309397
1.201  36.248123
1.200  36.210681
1.199  36.289558
1.198  36.274677
1.197  36.273650
1.196  36.302455
1.195  36.292383
1.194  36.241201
1.193  36.314952
1.192  36.328094
1.191  36.349226
1.190  36.311640
1.189  36.303266
1.188  36.253116
1.187  36.327294
1.186  36.350424
1.185  36.343922
1.184  36.372841
1.183  36.425843
1.182  36.391340
1.181  36.389610
1.180  36.381687
1.179  36.426424
1.178  36.426861
1.177  36.417864
1.176  36.396380
1.175  36.425606
1.174  36.390623
1.173  36.457736
1.172  36.468611
1.171  36.454522
1.170  36.433714
1.169  36.490528
1.168  36.434411
1.167  36.510468
1.166  36.499191
1.165  36.586793
1.164  36.485191
1.163  36.514495
1.162  36.491226
1.161  36.544978
1.160  36.571160
1.159  36.608447
1.158  36.576762
1.157  36.612254
1.156  36.661620
1.155  36.626101
1.154  36.572284
1.153  36.630679
1.152  36.571269
1.151  36.620887
1.150  36.621378
1.149  36.702441
1.148  36.687219
1.147  36.732751
1.146  36.620053
1.145  36.778243
1.144  36.733284
1.143  36.709309
1.142  36.682728
1.141  36.771136
1.140  36.702043
1.139  36.770484
1.138  36.721894
1.137  36.808357
1.136  36.826943
1.135  36.816985
1.134  36.791721
1.133  36.844692
1.132  36.785936
1.131  36.907271
1.130  36.869756
1.129  36.958772
1.128  36.929547
1.127  36.932077
1.126  36.868955
1.125  36.970716
1.124  36.935165
1.123  37.002919
1.122  36.935304
1.121  36.963342
1.120  36.988666
1.119  37.036085
1.118  36.935725
1.117  37.016306
1.116  37.007810
1.115  37.039048
1.114  37.000449
1.113  37.033397
1.112  37.031448
1.111  37.055228
1.110  37.029141
1.109  37.032788
1.108  37.115177
1.107  37.194758
1.106  37.105311
1.105  37.124210
1.104  37.107923
1.103  37.240762
1.102  37.150053
1.101  37.209288
1.100  37.154158
1.099  37.199276
1.098  37.162861
1.097  37.252767
1.096  37.181704
1.095  37.296175
1.094  37.195957
1.093  37.269185
1.092  37.240339
1.091  37.343090
1.090  37.215125
1.089  37.371126
1.088  37.300912
1.087  37.372212
1.086  37.243496
1.085  37.393515
1.084  37.321873
1.083  37.431699
1.082  37.327012
1.081  37.474050
1.080  37.305371
1.079  37.468222
1.078  37.332008
1.077  37.486214
1.076  37.341440
1.075  37.443486
1.074  37.380854
1.073  37.487656
1.072  37.474374
1.071  37.458550
1.070  37.332036
1.069  37.666542
1.068  37.477767
1.067  37.505268
1.066  37.447466
1.065  37.546703
1.064  37.507152
1.063  37.566255
1.062  37.578305
1.061  37.574823
1.060  37.551407
1.059  37.637384
1.058  37.544055
1.057  37.623890
1.056  37.615277
1.055  37.689811
1.054  37.627873
1.053  37.704294
1.052  37.674485
1.051  37.728304
1.050  37.709738
1.049  37.673810
1.048  37.641484
1.047  37.739504
1.046  37.668248
1.045  37.765209
1.044  37.667699
1.043  37.762990
1.042  37.722583
1.041  37.818436
1.040  37.695586
1.039  37.814474
1.038  37.791757
1.037  37.855492
1.036  37.779598
1.035  37.787464
1.034  37.798691
1.033  37.951008
1.032  37.807286
1.031  37.842039
1.030  37.808333
1.029  37.933389
1.028  37.888832
1.027  37.915456
1.026  37.861683
1.025  37.952683
1.024  37.905819
1.023  37.967884
1.022  37.840917
1.021  37.954562
1.020  37.959287
1.019  38.062125
1.018  37.943386
1.017  38.034105
1.016  37.968829
1.015  38.029263
1.014  37.927364
1.013  38.003786
1.012  37.944428
1.011  37.999575
1.010  37.995041
1.009  38.053630
1.008  37.993208
1.007  38.067994
1.006  37.994349
1.005  37.943014
1.004  38.022316
1.003  38.078969
1.002  38.022029
1.001  38.120052
1.000  38.055670
0.999  38.121572
0.998  38.104075
0.997  38.062809
0.996  38.086743
0.995  38.088580
0.994  38.046798
0.993  38.051527
0.992  37.989618
0.991  38.094286
0.990  38.054757
0.989  38.102202
0.988  38.063560
0.987  38.108963
0.986  38.087926
0.985  38.077628
0.984  38.122796
0.983  38.143956
0.982  38.144003
0.981  38.129780
0.980  38.102135
0.979  38.096510
0.978  38.172915
0.977  38.160904
0.976  38.069432
0.975  38.171341
0.974  38.084176
0.973  38.160418
0.972  38.162395
0.971  38.118523
0.970  38.146702
0.969  38.130353
0.968  38.123236
0.967  38.166246
0.966  38.151397
0.965  38.136668
0.964  38.106697
0.963  38.160169
0.962  38.117675
0.961  38.102973
0.960  38.129079
0.959  38.208619
0.958  38.094652
0.957  38.124934
0.956  38.165071
0.955  38.151858
0.954  38.150742
0.953  38.172758
0.952  38.162212
0.951  38.120600
0.950  38.093328
0.949  38.143410
0.948  38.151087
0.947  38.148695
0.946  38.077603
0.945  38.141856
0.944  38.138738
0.943  38.140186
0.942  38.155763
0.941  38.098907
0.940  38.104827
0.939  38.135095
0.938  38.071048
0.937  38.100288
0.936  38.120598
0.935  38.079016
0.934  38.063944
0.933  38.069437
0.932  38.063246
0.931  38.081695
0.930  38.096130
0.929  38.114012
0.928  38.092389
0.927  38.042764
0.926  38.033415
0.925  38.062708
0.924  38.034919
0.923  38.042761
0.922  38.007152
0.921  37.940842
0.920  37.985846
0.919  37.976801
0.918  37.977379
0.917  37.963235
0.916  37.953175
0.915  37.971989
0.914  37.988836
0.913  37.984047
0.912  37.997980
0.911  37.967941
0.910  37.979797
0.909  37.915355
0.908  37.907681
0.907  37.922817
0.906  37.938056
0.905  37.859744
0.904  37.863341
0.903  37.844035
0.902  37.874041
0.901  37.869792
0.900  37.899926
0.899  37.879771
0.898  37.840120
0.897  37.845472
0.896  37.897120
0.895  37.853291
0.894  37.831439
0.893  37.809526
0.892  37.821939
0.891  37.786982
0.890  37.796567
0.889  37.792344
0.888  37.831721
0.887  37.791779
0.886  37.791680
0.885  37.703317
0.884  37.850316
0.883  37.800166
0.882  37.816944
0.881  37.803925
0.880  37.858700
0.879  37.756836
0.878  37.789916
0.877  37.804832
0.876  37.843413
0.875  37.813105
0.874  37.849690
0.873  37.838339
0.872  37.846161
0.871  37.808101
0.870  37.831027
0.869  37.829214
0.868  37.902493
0.867  37.836026
0.866  37.855172
0.865  37.818116
0.864  37.842820
0.863  37.743180
0.862  37.811811
0.861  37.874942
0.860  37.923129
0.859  37.936136
0.858  37.932836
0.857  37.964861
0.856  37.882486
0.855  37.850396
0.854  37.891625
0.853  37.977934
0.852  37.924981
0.851  37.886313
0.850  37.901600
0.849  37.915393
0.848  37.913491
0.847  37.944729
0.846  37.927127
0.845  37.931800
0.844  37.925569
0.843  37.976119
0.842  37.942795
0.841  37.941926
0.840  37.969188
0.839  37.966054
0.838  37.999527
0.837  37.997972
0.836  37.968249
0.835  37.974129
0.834  37.991841
0.833  37.967802
0.832  38.031932
0.831  38.023011
0.830  38.008800
0.829  38.007423
0.828  38.022239
0.827  37.991521
0.826  37.991186
0.825  38.006180
0.824  37.988584
0.823  37.984675
0.822  37.992899
0.821  38.006322
0.820  38.000934
0.819  37.995030
0.818  38.000294
0.817  37.967836
0.816  37.997447
0.815  37.989729
0.814  37.953040
0.813  37.958666
0.812  37.959640
0.811  37.971596
0.810  37.971000
0.809  37.961712
0.808  37.944134
0.807  37.945726
0.806  37.940749
0.805  37.961390
0.804  37.935313
0.803  37.947553
0.802  37.944801
0.801  37.908840
0.800  37.919218
0.799  37.907948
0.798  37.884779
0.797  37.894638
0.796  37.870530
0.795  37.817772
0.794  37.842570
0.793  37.841642
0.792  37.824252
0.791  37.807993
0.790  37.821890
0.789  37.821948
0.788  37.801239
0.787  37.802910
0.786  37.783248
0.785  37.775012
0.784  37.748834
0.783  37.754709
0.782  37.770075
0.781  37.774513
0.780  37.741011
0.779  37.734163
0.778  37.751624
0.777  37.701964
0.776  37.697042
0.775  37.678854
0.774  37.669784
0.773  37.669458
0.772  37.679043
0.771  37.662938
0.770  37.638214
0.769  37.643352
0.768  37.621018
0.767  37.646823
0.766  37.630132
0.765  37.608187
0.764  37.601528
0.763  37.578761
0.762  37.607986
0.761  37.597509
0.760  37.562133
0.759  37.529253
0.758  37.534024
0.757  37.515704
0.756  37.509188
0.755  37.504848
0.754  37.506389
0.753  37.480579
0.752  37.472414
0.751  37.490752
0.750  37.458524
0.749  37.457371
0.748  37.460362
0.747  37.454780
0.746  37.437489
0.745  37.429698
0.744  37.433316
0.743  37.421356
0.742  37.397322
0.741  37.396265
0.740  37.392559
0.739  37.371735
0.738  37.355443
0.737  37.362335
0.736  37.354533
0.735  37.344036
0.734  37.329920
0.733  37.329926
0.732  37.334846
0.731  37.326931
0.730  37.310550
0.729  37.301300
0.728  37.284729
0.727  37.275370
0.726  37.277165
0.725  37.269743
0.724  37.247427
0.723  37.258602
0.722  37.252072
0.721  37.234892
0.720  37.220757
0.719  37.218218
0.718  37.192253
0.717  37.203092
0.716  37.194294
0.715  37.176566
0.714  37.164591
0.713  37.172475
0.712  37.158098
0.711  37.154218
0.710  37.140829
0.709  37.135719
0.708  37.120564
0.707  37.128026
0.706  37.113349
0.705  37.106221
0.704  37.098321
0.703  37.076671
0.702  37.078263
0.701  37.072585
0.700  37.051859
0.699  37.032585
0.698  37.015851
0.697  37.011834
0.696  37.008132
0.695  36.992767
0.694  36.991001
0.693  36.981181
0.692  36.979157
0.691  36.973687
0.690  36.977935
0.689  36.958564
0.688  36.928547
0.687  36.940768
0.686  36.937156
0.685  36.925219
0.684  36.921278
0.683  36.920782
0.682  36.921641
0.681  36.904001
0.680  36.906132
0.679  36.897170
0.678  36.883738
0.677  36.880833
0.676  36.874688
0.675  36.869205
0.674  36.873202
0.673  36.852905
0.672  36.856382
0.671  36.855398
0.670  36.845579
0.669  36.828469
0.668  36.834593
0.667  36.838836
0.666  36.830482
0.665  36.807332
0.664  36.806036
0.663  36.802538
0.662  36.789088
0.661  36.792409
0.660  36.790302
0.659  36.788658
0.658  36.777753
0.657  36.767329
0.656  36.764605
0.655  36.758971
0.654  36.755157
0.653  36.753399
0.652  36.747181
0.651  36.745029
0.650  36.733362
0.649  36.726053
0.648  36.729042
0.647  36.722479
0.646  36.723403
0.645  36.717791
0.644  36.706389
0.643  36.700950
0.642  36.700690
0.641  36.695571
0.640  36.685771
0.639  36.683595
0.638  36.681817
0.637  36.674434
0.636  36.668959
0.635  36.655132
0.634  36.656675
0.633  36.659317
0.632  36.656583
0.631  36.651503
0.630  36.640360
0.629  36.634879
0.628  36.629372
0.627  36.627037
0.626  36.622947
0.625  36.618961
0.624  36.611441
0.623  36.605429
0.622  36.605774
0.621  36.603013
0.620  36.592988
0.619  36.587127
0.618  36.590162
0.617  36.586810
0.616  36.574798
0.615  36.570411
0.614  36.562199
0.613  36.560499
0.612  36.547643
0.611  36.539222
0.610  36.525503
0.609  36.523584
0.608  36.525685
0.607  36.519345
0.606  36.512374
0.605  36.501820
0.604  36.496796
0.603  36.490264
0.602  36.480625
0.601  36.474010
0.600  36.460727
0.599  36.459996
0.598  36.459206
0.597  36.456682
0.596  36.449891
0.595  36.456214
0.594  36.456383
0.593  36.441572
0.592  36.429375
0.591  36.417485
0.590  36.405638
0.589  36.398739
0.588  36.389045
0.587  36.379993
0.586  36.359453
0.585  36.347139
0.584  36.334798
0.583  36.324481
0.582  36.306092
0.581  36.295797
0.580  36.286254
0.579  36.272822
0.578  36.254227
0.577  36.241677
0.576  36.229701
0.575  36.217470
0.574  36.205353
0.573  36.186900
0.572  36.179549
0.571  36.163085
0.570  36.143390
0.569  36.128808
0.568  36.109332
0.567  36.091847
0.566  36.080858
0.565  36.069090
0.564  36.051368
0.563  36.034041
0.562  36.025023
0.561  35.961358
0.560  35.927458
0.559  35.906125
0.558  35.883362
0.557  35.864244
0.556  35.839745
0.555  35.814126
0.554  35.790661
0.553  35.770682
0.552  35.762135
0.551  35.741565
0.550  35.720269
0.549  35.697903
0.548  35.672673
0.547  35.651310
0.546  35.632250
0.545  35.611222
0.544  35.582336
0.543  35.564978
0.542  35.537700
0.541  35.510615
0.540  35.494970
0.539  35.470564
0.538  35.446566
0.537  35.416238
0.536  35.395469
0.535  35.377008
0.534  35.357819
0.533  35.340422
0.532  35.314642
0.531  35.281455
0.530  35.260900
0.529  35.243768
0.528  35.220167
0.527  35.209254
0.526  35.200861
0.525  35.176479
0.524  35.152395
0.523  35.131756
0.522  35.092996
0.521  35.068956
0.520  35.042536
0.519  35.014187
0.518  34.986517
0.517  34.969467
0.516  34.934138
0.515  34.891488
0.514  34.863162
0.513  34.836312
0.512  34.798117
0.511  34.757467
0.510  34.727911
0.509  34.701352
0.508  34.653196
0.507  34.612574
0.506  34.569007
0.505  34.550478
0.504  34.500639
0.503  34.465114
0.502  34.418012
0.501  34.368720
0.500  34.346507
0.499  34.294674
0.498  34.248108
0.497  34.191742
0.496  34.165148
0.495  34.115884
0.494  34.058307
0.493  34.028849
0.492  33.967972
0.491  33.935791
0.490  33.900790
0.489  33.856878
0.488  33.801207
0.487  33.738105
0.486  33.704667
0.485  33.648528
0.484  33.610361
0.483  33.589633
0.482  33.571818
0.481  33.562594
0.480  33.567371
0.479  33.560216
0.478  33.557184
0.477  33.551274
0.476  33.532568
0.475  33.515059
0.474  33.485340
0.473  33.471084
0.472  33.445399
0.471  33.419361
0.470  33.399344
0.469  33.384163
0.468  33.360025
0.467  33.343918
0.466  33.320243
0.465  33.301079
0.464  33.284611
0.463  33.254566
0.462  33.229210
0.461  33.195785
0.460  33.172576
0.459  33.142188
0.458  33.139634
0.457  33.096368
0.456  33.059221
0.455  33.024032
0.454  32.983693
0.453  32.949976
0.452  32.902952
0.451  32.874985
0.450  32.840438
0.449  32.805637
0.448  32.767467
0.447  32.730204
0.446  32.678484
0.445  32.653489
0.444  32.610529
0.443  32.570423
0.442  32.541722
0.441  32.512790
0.440  32.471399
0.439  32.432581
0.438  32.401240
0.437  32.366213
0.436  32.316044
0.435  32.274178
0.434  32.236926
0.433  32.183909
0.432  32.139011
0.431  32.096621
0.430  32.050045
0.429  32.008597
0.428  31.949316
0.427  31.892096
0.426  31.849889
0.425  31.816788
0.424  31.764632
0.423  31.714182
0.422  31.669359
0.421  31.635200
0.420  31.591524
0.419  31.552221
0.418  31.516985
0.417  31.485436
0.416  31.452599
0.415  31.422096
0.414  31.386461
0.413  31.356386
0.412  31.315087
0.411  31.287981
0.410  31.251846
0.409  31.220585
0.408  31.175853
0.407  31.144005
0.406  31.094959
0.405  31.062359
0.404  31.017870
0.403  30.970011
0.402  30.921900
0.401  30.888015
0.400  30.838612
