Name: Graphite C
Type: Mineral
Class: Elements
Subclass: 
Particle Size: 45-125um
Sample No.: E-1A
Owner: JPL
Wavelength range: IR
Origin: Mexico, Sonora, Morelos, San Jose Mine
Collected by Burminco
Description: 





Measurement: Hemispherical reflectance
First Column: X
Second Column: Y
X Units:  Wavelength (micrometers)
Y Units:  Reflectance (percent)
First X Value: 15.3853
Last X Value: 2.00032
Number of X Values: 2256
Additional information: e01aa.txt
 
15.3853	12.7849
15.3397	12.9165
15.2945	12.5499
15.2495	12.425
15.2048	12.529
15.1603	12.4346
15.1161	12.3524
15.0722	12.5635
15.0285	12.6792
14.9851	12.8715
14.9419	12.8759
14.8989	12.7143
14.8563	12.5556
14.8138	12.3792
14.7716	12.2313
14.7296	12.1595
14.6879	12.2321
14.6464	12.4097
14.6052	12.383
14.5641	12.2929
14.5233	12.3165
14.4828	12.3746
14.4424	12.3786
14.4023	12.1115
14.3624	11.8913
14.3227	12.1724
14.2833	12.4051
14.244	12.2693
14.205	12.2874
14.1662	12.454
14.1276	12.3651
14.0892	12.2342
14.051	12.2343
14.0131	12.3261
13.9753	12.2579
13.9377	12.1782
13.9004	12.1188
13.8632	12.2277
13.8262	12.3554
13.7895	12.3397
13.7529	12.1898
13.7165	12.0342
13.6803	11.8312
13.6443	11.8262
13.6085	11.9358
13.5729	11.9725
13.5374	11.988
13.5022	12.0771
13.4671	12.0475
13.4322	11.8877
13.3975	11.847
13.363	11.9328
13.3286	11.9062
13.2944	11.9529
13.2604	12.0546
13.2266	11.9549
13.193	11.7564
13.1595	11.8098
13.1262	11.9285
13.093	11.9558
13.06	11.9067
13.0272	11.8743
12.9946	11.8325
12.9621	11.9294
12.9298	12.0521
12.8976	11.8575
12.8656	11.6403
12.8337	11.6941
12.8021	11.7647
12.7705	11.8541
12.7391	11.9143
12.7079	11.8712
12.6769	11.8195
12.6459	11.7631
12.6152	11.8125
12.5845	11.828
12.5541	11.6704
12.5238	11.6518
12.4936	11.8212
12.4635	11.8363
12.4337	11.8884
12.4039	11.8903
12.3743	11.6689
12.3448	11.5199
12.3155	11.6057
12.2863	11.6233
12.2573	11.598
12.2284	11.5593
12.1996	11.5604
12.171	11.6098
12.1425	11.599
12.1141	11.6289
12.0859	11.6256
12.0578	11.5357
12.0298	11.4483
12.0019	11.563
11.9742	11.6459
11.9466	11.5025
11.9192	11.4496
11.8918	11.4043
11.8646	11.393
11.8375	11.3866
11.8106	11.5327
11.7837	11.6342
11.757	11.5684
11.7304	11.5435
11.7039	11.5311
11.6776	11.4347
11.6513	11.4301
11.6252	11.5599
11.5992	11.5792
11.5733	11.5011
11.5475	11.4342
11.5219	11.4049
11.4963	11.3078
11.4709	11.2528
11.4455	11.2663
11.4203	11.3555
11.3952	11.313
11.3702	11.3453
11.3454	11.3343
11.3206	11.2224
11.2959	11.2386
11.2714	11.3273
11.2469	11.2701
11.2226	11.1498
11.1983	11.2511
11.1742	11.3727
11.1502	11.3634
11.1263	11.3886
11.1024	11.3943
11.0787	11.3119
11.0551	11.2862
11.0316	11.2617
11.0081	11.188
10.9848	11.1187
10.9616	11.1435
10.9385	11.2234
10.9154	11.1458
10.8925	11.0699
10.8697	11.1157
10.8469	11.2174
10.8243	11.3115
10.8017	11.3264
10.7793	11.2017
10.7569	10.9864
10.7346	10.9649
10.7125	11.1416
10.6904	11.1585
10.6684	11.1112
10.6465	11.0712
10.6247	11.0357
10.6029	11.0883
10.5813	11.1083
10.5597	11.1235
10.5383	11
10.5169	11.0474
10.4956	11.1981
10.4744	11.0979
10.4533	11.1012
10.4323	11.217
10.4113	11.1234
10.3904	11.0787
10.3697	11.1136
10.349	11.0706
10.3284	11.0429
10.3078	11.0434
10.2874	11.0636
10.267	11.0907
10.2467	11.0949
10.2265	11.0524
10.2064	11.0677
10.1863	11.1983
10.1663	11.2398
10.1464	11.0869
10.1266	11.0356
10.1069	11.008
10.0872	11.0066
10.0676	11.1838
10.0481	11.2615
10.0287	11.1849
10.0093	11.0657
9.99005	11.0326
9.97084	11.1966
9.95169	11.2975
9.93263	11.1858
9.91364	11.0653
9.89472	11.0428
9.87587	11.0721
9.8571	11.1534
9.83839	11.166
9.81976	11.2203
9.80119	11.2228
9.78271	11.105
9.76428	11.0575
9.74592	11.1499
9.72764	11.1346
9.70943	11.1922
9.69128	11.2988
9.6732	11.2724
9.65518	11.1478
9.63724	11.0827
9.61935	11.1737
9.60155	11.3837
9.5838	11.3307
9.56611	11.1209
9.5485	11.0249
9.53094	11.0833
9.51345	11.1511
9.49604	11.1515
9.47867	11.2198
9.46137	11.2198
9.44414	11.2049
9.42697	11.2115
9.40986	11.1755
9.39281	11.1914
9.37583	11.1553
9.35891	10.9983
9.34204	10.9846
9.32524	11.1909
9.3085	11.3696
9.29182	11.3115
9.27519	11.1477
9.25863	11.0825
9.24213	11.1016
9.22568	11.088
9.2093	11.1714
9.19297	11.244
9.17669	11.1576
9.16048	11.0505
9.14433	11.0187
9.12823	10.9703
9.11218	10.9269
9.0962	10.9138
9.08027	11.0343
9.06439	11.1399
9.04858	11.0976
9.03281	11.0139
9.0171	11.0219
9.00145	11.1055
8.98585	11.0028
8.9703	10.8527
8.9548	10.954
8.93937	10.9802
8.92398	10.9457
8.90865	10.8443
8.89337	10.8338
8.87814	10.8716
8.86296	10.8385
8.84784	10.7939
8.83277	10.8702
8.81774	10.7885
8.80277	10.6262
8.78786	10.6571
8.77298	10.7713
8.75816	10.7779
8.7434	10.7814
8.72868	10.8214
8.714	10.8171
8.69938	10.7446
8.68481	10.7805
8.67029	10.8112
8.65581	10.723
8.64139	10.602
8.62701	10.6258
8.61268	10.5716
8.5984	10.6512
8.58416	10.7097
8.56997	10.6798
8.55583	10.7443
8.54174	10.7114
8.52769	10.5888
8.51368	10.4065
8.49973	10.3387
8.48582	10.452
8.47195	10.5736
8.45813	10.5995
8.44436	10.6082
8.43062	10.6398
8.41693	10.647
8.4033	10.6616
8.3897	10.6063
8.37614	10.6553
8.36264	10.6388
8.34917	10.5862
8.33574	10.6568
8.32236	10.7442
8.30903	10.7822
8.29573	10.6788
8.28248	10.5143
8.26927	10.4609
8.2561	10.4944
8.24298	10.5149
8.2299	10.4199
8.21685	10.3928
8.20385	10.4697
8.19089	10.4461
8.17797	10.4539
8.16509	10.56
8.15225	10.5335
8.13946	10.4316
8.1267	10.3842
8.11398	10.3414
8.10131	10.3544
8.08867	10.3466
8.07606	10.3045
8.0635	10.3365
8.05099	10.4204
8.0385	10.4324
8.02606	10.3696
8.01366	10.2536
8.00129	10.1375
7.98896	10.1195
7.97667	10.1693
7.96442	10.0937
7.9522	10.0443
7.94002	10.0646
7.92788	10.0777
7.91578	10.0976
7.90371	10.0576
7.89168	10.0521
7.87969	10.0607
7.86773	10.0755
7.85581	10.0918
7.84392	10.0486
7.83207	10.0602
7.82026	10.0292
7.80849	9.99559
7.79674	9.96498
7.78503	9.96185
7.77337	9.94907
7.76173	9.99079
7.75012	10.016
7.73856	10.0303
7.72703	9.98005
7.71553	9.90126
7.70406	9.96081
7.69263	9.99057
7.68123	9.97735
7.66987	10.0007
7.65855	10.0294
7.64725	10.0077
7.63598	9.93154
7.62475	9.91743
7.61356	9.90663
7.60239	9.84492
7.59126	9.79627
7.58017	9.85251
7.5691	9.88793
7.55806	9.94937
7.54707	9.97381
7.5361	9.97623
7.52516	9.98724
7.51425	9.98041
7.50338	9.8947
7.49253	9.84847
7.48172	9.85526
7.47094	9.88993
7.46019	9.88252
7.44947	9.80809
7.43879	9.83525
7.42813	9.86509
7.4175	9.85567
7.4069	9.89092
7.39634	9.87238
7.3858	9.83633
7.37529	9.79369
7.36482	9.82014
7.35437	9.9304
7.34396	9.93531
7.33357	9.91245
7.32321	9.87393
7.31288	9.8542
7.30258	9.79911
7.29231	9.80828
7.28207	9.80703
7.27185	9.827
7.26167	9.85466
7.25152	9.83151
7.24139	9.78092
7.23129	9.78779
7.22122	9.82142
7.21117	9.87119
7.20116	9.79975
7.19117	9.70342
7.18121	9.72773
7.17128	9.79603
7.16137	9.8311
7.1515	9.89139
7.14164	9.81623
7.13182	9.68105
7.12203	9.72115
7.11225	9.74169
7.10251	9.77737
7.0928	9.77913
7.08311	9.77939
7.07344	9.69074
7.06381	9.65295
7.0542	9.71124
7.04461	9.81874
7.03506	9.80642
7.02552	9.79939
7.01601	9.76679
7.00653	9.75763
6.99708	9.7084
6.98765	9.61764
6.97824	9.63142
6.96886	9.71408
6.95951	9.82312
6.95018	9.7252
6.94087	9.66793
6.9316	9.65475
6.92234	9.70708
6.91311	9.79057
6.90391	9.73885
6.89473	9.62337
6.88557	9.6258
6.87644	9.63054
6.86733	9.70711
6.85824	9.74923
6.84918	9.64635
6.84015	9.64728
6.83114	9.68693
6.82215	9.6429
6.81319	9.60055
6.80424	9.58506
6.79532	9.5947
6.78643	9.60883
6.77756	9.6387
6.76871	9.57444
6.75989	9.53071
6.75109	9.51555
6.74231	9.51229
6.73355	9.45248
6.72482	9.44634
6.71611	9.52692
6.70742	9.45527
6.69875	9.41436
6.69011	9.48058
6.68149	9.5641
6.67289	9.58747
6.66431	9.5213
6.65576	9.47261
6.64722	9.53369
6.63871	9.68662
6.63022	9.75167
6.62175	9.70505
6.61331	9.52319
6.60488	9.41894
6.59648	9.51339
6.5881	9.60782
6.57974	9.65559
6.5714	9.65252
6.56308	9.49278
6.55478	9.47155
6.54651	9.49932
6.53825	9.49079
6.53001	9.54791
6.5218	9.56767
6.51361	9.47717
6.50544	9.48885
6.49729	9.71141
6.48915	9.83225
6.48104	9.67698
6.47295	9.56299
6.46488	9.51432
6.45683	9.48709
6.4488	9.4821
6.44079	9.46978
6.4328	9.58841
6.42482	9.68434
6.41687	9.7694
6.40894	9.65287
6.40103	9.47065
6.39314	9.44395
6.38526	9.45955
6.37741	9.53174
6.36957	9.54673
6.36176	9.52304
6.35396	9.51882
6.34618	9.52244
6.33843	9.48245
6.33069	9.47187
6.32297	9.47592
6.31527	9.42448
6.30758	9.37523
6.29992	9.29823
6.29227	9.31424
6.28465	9.33202
6.27704	9.34576
6.26945	9.34632
6.26188	9.26378
6.25432	9.30561
6.24679	9.39617
6.23927	9.39868
6.23177	9.31577
6.22429	9.32227
6.21683	9.35646
6.20938	9.34483
6.20195	9.28847
6.19454	9.33337
6.18715	9.36543
6.17978	9.26122
6.17242	9.20212
6.16508	9.26742
6.15776	9.28064
6.15045	9.27473
6.14317	9.31488
6.1359	9.32521
6.12864	9.27142
6.12141	9.30461
6.11419	9.45964
6.10699	9.40004
6.0998	9.28165
6.09263	9.22867
6.08549	9.17685
6.07835	9.17866
6.07123	9.28864
6.06413	9.25073
6.05705	9.30235
6.04998	9.4969
6.04293	9.32764
6.0359	9.19909
6.02888	9.29729
6.02187	9.27792
6.01489	9.22827
6.00792	9.21507
6.00096	9.21725
5.99403	9.29058
5.98711	9.27789
5.9802	9.20725
5.97331	9.20481
5.96644	9.23548
5.95958	9.19133
5.95274	9.18003
5.94591	9.19994
5.9391	9.29294
5.9323	9.24293
5.92552	9.16876
5.91876	9.14133
5.91201	9.15976
5.90528	9.16957
5.89856	9.18848
5.89186	9.2162
5.88517	9.26184
5.8785	9.24613
5.87184	9.14652
5.8652	9.13282
5.85857	9.10987
5.85196	9.12987
5.84536	9.05343
5.83878	9.0217
5.83221	9.11954
5.82566	9.19175
5.81912	9.11245
5.81259	9.0529
5.80608	9.10007
5.79959	9.11309
5.79311	9.0758
5.78665	9.03481
5.78019	9.06207
5.77376	9.17447
5.76734	9.28037
5.76093	9.14144
5.75453	9.05844
5.74815	9.11264
5.74179	9.07713
5.73543	8.9846
5.7291	8.93653
5.72277	8.93694
5.71646	8.98913
5.71017	9.05476
5.70389	9.08562
5.69762	9.03941
5.69136	9.01822
5.68513	9.02696
5.6789	9.01494
5.67268	8.92929
5.66648	8.83314
5.6603	8.81316
5.65413	8.90279
5.64797	8.9548
5.64182	9.02422
5.63569	8.98894
5.62957	8.85527
5.62347	8.85456
5.61737	8.87518
5.61129	8.95005
5.60522	8.96762
5.59917	8.87909
5.59313	8.77943
5.5871	8.84163
5.58109	8.96625
5.57509	8.98144
5.5691	8.93425
5.56312	8.82509
5.55716	8.8112
5.55121	8.8501
5.54528	8.81878
5.53935	8.8212
5.53344	8.8014
5.52754	8.84743
5.52166	8.89092
5.51578	8.94887
5.50992	8.89107
5.50407	8.82319
5.49823	8.80762
5.49241	8.82637
5.4866	8.8354
5.4808	8.83003
5.47501	8.8491
5.46923	8.84302
5.46347	8.77016
5.45772	8.79602
5.45198	8.84535
5.44625	8.85741
5.44054	8.81914
5.43484	8.72266
5.42914	8.74321
5.42347	8.73739
5.4178	8.74375
5.41214	8.74325
5.4065	8.7121
5.40087	8.74401
5.39525	8.78436
5.38964	8.78656
5.38404	8.84571
5.37846	8.89859
5.37288	8.8185
5.36732	8.71104
5.36177	8.7013
5.35623	8.70012
5.35071	8.71323
5.34519	8.71771
5.33968	8.74258
5.33419	8.7597
5.32871	8.74324
5.32324	8.71318
5.31778	8.66299
5.31233	8.63935
5.30689	8.65878
5.30147	8.69799
5.29605	8.71672
5.29065	8.71791
5.28525	8.73824
5.27987	8.73469
5.2745	8.74274
5.26914	8.76454
5.26379	8.71963
5.25845	8.66904
5.25312	8.68285
5.24781	8.6779
5.2425	8.71274
5.23721	8.76353
5.23192	8.76923
5.22665	8.70801
5.22138	8.65775
5.21613	8.73227
5.21089	8.81725
5.20566	8.79215
5.20044	8.68293
5.19522	8.60715
5.19002	8.56894
5.18483	8.58349
5.17965	8.59967
5.17448	8.67318
5.16933	8.73052
5.16418	8.7455
5.15904	8.72229
5.15391	8.6974
5.14879	8.70871
5.14368	8.65578
5.13859	8.60816
5.1335	8.62069
5.12842	8.67057
5.12335	8.67382
5.1183	8.64262
5.11325	8.59046
5.10821	8.58359
5.10318	8.61085
5.09817	8.56646
5.09316	8.5444
5.08816	8.60106
5.08317	8.65002
5.07819	8.63662
5.07322	8.62086
5.06826	8.66242
5.06331	8.69131
5.05837	8.61549
5.05344	8.61638
5.04852	8.673
5.04361	8.63114
5.03871	8.52151
5.03382	8.57211
5.02894	8.65868
5.02406	8.60338
5.0192	8.57522
5.01435	8.56579
5.0095	8.60012
5.00467	8.59751
4.99984	8.54907
4.99502	8.5616
4.99021	8.57547
4.98542	8.57981
4.98063	8.65182
4.97585	8.64594
4.97108	8.59803
4.96632	8.5426
4.96156	8.44168
4.95682	8.48644
4.95209	8.50642
4.94736	8.48758
4.94264	8.53846
4.93794	8.55472
4.93324	8.54452
4.92855	8.52693
4.92387	8.46375
4.9192	8.55067
4.91453	8.65429
4.90988	8.57087
4.90524	8.51038
4.9006	8.54534
4.89597	8.51119
4.89135	8.44865
4.88674	8.46448
4.88214	8.5424
4.87755	8.59731
4.87296	8.52436
4.86839	8.43856
4.86382	8.49964
4.85926	8.5401
4.85471	8.52517
4.85017	8.52347
4.84564	8.4924
4.84111	8.44978
4.8366	8.4473
4.83209	8.51454
4.82759	8.58908
4.8231	8.57512
4.81862	8.49146
4.81415	8.48548
4.80968	8.49337
4.80522	8.44045
4.80077	8.33623
4.79633	8.30414
4.7919	8.44555
4.78747	8.50983
4.78306	8.44934
4.77865	8.45631
4.77425	8.40732
4.76986	8.37585
4.76547	8.41172
4.7611	8.45236
4.75673	8.49244
4.75237	8.47674
4.74802	8.47346
4.74367	8.52962
4.73934	8.49332
4.73501	8.47473
4.73069	8.53012
4.72638	8.47969
4.72207	8.4658
4.71777	8.46637
4.71348	8.41026
4.7092	8.36926
4.70493	8.38156
4.70066	8.39013
4.69641	8.41071
4.69216	8.47703
4.68791	8.50698
4.68368	8.48686
4.67945	8.43241
4.67523	8.36025
4.67102	8.40464
4.66682	8.40079
4.66262	8.39528
4.65843	8.44248
4.65425	8.40761
4.65007	8.37147
4.64591	8.38526
4.64175	8.39676
4.6376	8.42862
4.63345	8.44399
4.62932	8.44629
4.62519	8.38867
4.62106	8.3268
4.61695	8.33658
4.61284	8.35197
4.60874	8.37535
4.60465	8.38045
4.60056	8.27103
4.59648	8.22696
4.59241	8.3111
4.58835	8.33417
4.58429	8.28093
4.58024	8.34762
4.5762	8.38432
4.57216	8.32491
4.56814	8.26918
4.56411	8.29006
4.5601	8.28253
4.55609	8.31812
4.55209	8.37627
4.5481	8.37411
4.54411	8.36589
4.54013	8.36628
4.53616	8.30131
4.5322	8.28446
4.52824	8.30312
4.52429	8.24284
4.52034	8.22647
4.51641	8.30549
4.51247	8.35112
4.50855	8.31164
4.50463	8.28982
4.50072	8.23063
4.49682	8.27005
4.49292	8.29998
4.48903	8.249
4.48515	8.19029
4.48127	8.18805
4.4774	8.24682
4.47354	8.23067
4.46968	8.2255
4.46584	8.22004
4.46199	8.22528
4.45815	8.23579
4.45432	8.22631
4.4505	8.25977
4.44668	8.21022
4.44287	8.22492
4.43907	8.27718
4.43527	8.29504
4.43148	8.26375
4.4277	8.23482
4.42392	8.28802
4.42015	8.3332
4.41638	8.31782
4.41262	8.25229
4.40887	8.17535
4.40513	8.16958
4.40139	8.17682
4.39765	8.20266
4.39393	8.21886
4.39021	8.25083
4.38649	8.26243
4.38278	8.21113
4.37908	8.18682
4.37539	8.25531
4.3717	8.20264
4.36801	8.13177
4.36434	8.2069
4.36067	8.26843
4.357	8.18029
4.35335	8.12759
4.34969	8.15495
4.34605	8.17025
4.34241	8.15865
4.33877	8.16243
4.33514	8.19272
4.33152	8.22907
4.32791	8.205
4.3243	8.18488
4.32069	8.16462
4.3171	8.14234
4.31351	8.17072
4.30992	8.1932
4.30634	8.16807
4.30277	8.2239
4.2992	8.23077
4.29564	8.17648
4.29208	8.15576
4.28853	8.13218
4.28499	8.15365
4.28145	8.24765
4.27792	8.25877
4.27439	8.2158
4.27087	8.13862
4.26735	8.04021
4.26384	8.14309
4.26034	8.18789
4.25684	8.11978
4.25335	8.12568
4.24986	8.15926
4.24638	8.15544
4.24291	8.17716
4.23944	8.26571
4.23598	8.23192
4.23252	8.15078
4.22906	8.16619
4.22562	8.16297
4.22218	8.12785
4.21874	8.11864
4.21531	8.09398
4.21189	8.07435
4.20847	8.09116
4.20506	8.08027
4.20165	8.03573
4.19825	8.06792
4.19485	8.13707
4.19146	8.14469
4.18807	8.10718
4.18469	8.13244
4.18132	8.14569
4.17795	8.09678
4.17458	8.05551
4.17123	8.10186
4.16787	8.15257
4.16453	8.1304
4.16118	8.07384
4.15785	8.01834
4.15451	7.94326
4.15119	7.97181
4.14787	8.05035
4.14455	8.06254
4.14124	8.00354
4.13794	7.99203
4.13464	8.0334
4.13134	8.05145
4.12805	8.01478
4.12477	8.03118
4.12149	8.09834
4.11822	8.02859
4.11495	8.00717
4.11168	7.98994
4.10843	7.99101
4.10517	7.97653
4.10192	7.97837
4.09868	8.01147
4.09545	7.99629
4.09221	7.98279
4.08899	7.97142
4.08576	8.03823
4.08255	8.09174
4.07933	8.05385
4.07613	7.97561
4.07292	7.95693
4.06973	7.979
4.06654	8.00309
4.06335	7.97697
4.06017	7.92556
4.05699	7.94448
4.05382	8.0002
4.05065	7.96234
4.04749	8.00353
4.04433	8.03795
4.04118	7.95341
4.03803	7.83764
4.03489	7.88276
4.03175	7.98916
4.02862	7.97676
4.02549	7.99613
4.02237	7.92605
4.01925	7.95098
4.01614	8.01115
4.01303	7.94394
4.00993	7.92958
4.00683	7.87158
4.00373	7.91074
4.00064	7.97289
3.99756	7.99146
3.99448	7.94179
3.9914	7.93187
3.98833	7.96004
3.98527	7.89122
3.98221	7.83015
3.97915	7.86387
3.9761	7.87553
3.97305	7.8856
3.97001	7.91226
3.96697	7.9605
3.96394	7.98286
3.96091	7.94207
3.95789	7.90233
3.95487	7.87323
3.95186	7.87805
3.94885	7.81865
3.94584	7.74198
3.94284	7.77636
3.93984	7.853
3.93685	7.92454
3.93386	7.88625
3.93088	7.87136
3.9279	7.85594
3.92493	7.81169
3.92196	7.78979
3.919	7.83225
3.91604	7.90336
3.91308	7.93223
3.91013	7.94638
3.90718	7.92482
3.90424	7.901
3.9013	7.89761
3.89837	7.93727
3.89544	7.93023
3.89252	7.87865
3.8896	7.91639
3.88668	7.9546
3.88377	7.87909
3.88086	7.7618
3.87796	7.83283
3.87506	7.82762
3.87217	7.80888
3.86928	7.77129
3.86639	7.80693
3.86351	7.84821
3.86064	7.87629
3.85776	7.84458
3.8549	7.79917
3.85203	7.75262
3.84917	7.77907
3.84631	7.82372
3.84346	7.85921
3.84062	7.87726
3.83777	7.83765
3.83494	7.81636
3.8321	7.89854
3.82927	7.90941
3.82644	7.79486
3.82362	7.80852
3.82081	7.80273
3.81799	7.72041
3.81518	7.66792
3.81238	7.72612
3.80958	7.74036
3.80678	7.77935
3.80399	7.78206
3.8012	7.79508
3.79841	7.82398
3.79563	7.80382
3.79286	7.75423
3.79008	7.73527
3.78731	7.78042
3.78455	7.80908
3.78179	7.86743
3.77903	7.85554
3.77628	7.79739
3.77353	7.75855
3.77079	7.75803
3.76805	7.82963
3.76531	7.80691
3.76258	7.74049
3.75985	7.77291
3.75713	7.78707
3.7544	7.74691
3.75169	7.70875
3.74898	7.60587
3.74627	7.61582
3.74356	7.69116
3.74086	7.6945
3.73816	7.71286
3.73547	7.71629
3.73278	7.79768
3.7301	7.78449
3.72741	7.68984
3.72474	7.63794
3.72206	7.68214
3.71939	7.75517
3.71673	7.74352
3.71406	7.75688
3.71141	7.81896
3.70875	7.80721
3.7061	7.7457
3.70345	7.6653
3.70081	7.6695
3.69817	7.72551
3.69553	7.68158
3.6929	7.70817
3.69027	7.76234
3.68765	7.75974
3.68503	7.78585
3.68241	7.76975
3.6798	7.74821
3.67719	7.85219
3.67458	7.80783
3.67198	7.68066
3.66938	7.65768
3.66678	7.66472
3.66419	7.61392
3.66161	7.63856
3.65902	7.63431
3.65644	7.65214
3.65387	7.70427
3.65129	7.66855
3.64872	7.63672
3.64616	7.69085
3.64359	7.75049
3.64103	7.70264
3.63848	7.69161
3.63593	7.72635
3.63338	7.77961
3.63084	7.78312
3.6283	7.69848
3.62576	7.68734
3.62322	7.72278
3.62069	7.8277
3.61817	7.90151
3.61564	7.75657
3.61312	7.6996
3.61061	7.70224
3.6081	7.68749
3.60559	7.60617
3.60308	7.54388
3.60058	7.62057
3.59808	7.66833
3.59558	7.61815
3.59309	7.65149
3.59061	7.6892
3.58812	7.74445
3.58564	7.70759
3.58316	7.65954
3.58069	7.68872
3.57822	7.69882
3.57575	7.61591
3.57328	7.58616
3.57082	7.55617
3.56836	7.5588
3.56591	7.59071
3.56346	7.55017
3.56101	7.49891
3.55857	7.54065
3.55613	7.54553
3.55369	7.52702
3.55126	7.58724
3.54883	7.70417
3.5464	7.61522
3.54397	7.54898
3.54155	7.65315
3.53914	7.69814
3.53672	7.67531
3.53431	7.68572
3.5319	7.60915
3.5295	7.53689
3.5271	7.57999
3.5247	7.61567
3.52231	7.60169
3.51991	7.68138
3.51753	7.66727
3.51514	7.57311
3.51276	7.50307
3.51038	7.49807
3.50801	7.59534
3.50563	7.60348
3.50327	7.53781
3.5009	7.51999
3.49854	7.60905
3.49618	7.64446
3.49382	7.62004
3.49147	7.59776
3.48912	7.5508
3.48677	7.53537
3.48443	7.56511
3.48209	7.63674
3.47975	7.63765
3.47742	7.55629
3.47509	7.51597
3.47276	7.58983
3.47044	7.58679
3.46812	7.50046
3.4658	7.53295
3.46348	7.52195
3.46117	7.51341
3.45886	7.63429
3.45656	7.68269
3.45425	7.542
3.45195	7.59317
3.44966	7.69329
3.44736	7.66175
3.44507	7.5681
3.44279	7.54347
3.4405	7.63679
3.43822	7.7047
3.43594	7.60007
3.43367	7.54188
3.43139	7.64113
3.42912	7.79922
3.42686	7.83402
3.42459	7.72746
3.42233	7.61635
3.42007	7.56904
3.41782	7.49257
3.41557	7.45497
3.41332	7.56623
3.41108	7.66057
3.40883	7.61163
3.40659	7.67135
3.40435	7.67323
3.40212	7.59931
3.39989	7.54062
3.39766	7.5275
3.39544	7.56746
3.39322	7.55396
3.391	7.53934
3.38878	7.47516
3.38657	7.47058
3.38436	7.54265
3.38215	7.49616
3.37994	7.56697
3.37774	7.59583
3.37554	7.54478
3.37335	7.59277
3.37115	7.594
3.36896	7.51983
3.36678	7.50579
3.36459	7.49687
3.36241	7.49663
3.36023	7.52676
3.35805	7.46901
3.35588	7.37941
3.35371	7.44763
3.35154	7.54535
3.34938	7.46097
3.34721	7.38881
3.34505	7.42833
3.3429	7.48509
3.34074	7.55023
3.33859	7.61968
3.33644	7.5872
3.3343	7.46433
3.33215	7.38765
3.33001	7.37286
3.32788	7.39786
3.32574	7.49328
3.32361	7.51202
3.32148	7.50422
3.31936	7.51687
3.31723	7.43491
3.31511	7.37609
3.31299	7.3978
3.31088	7.39616
3.30876	7.38615
3.30665	7.36237
3.30455	7.37385
3.30244	7.37142
3.30034	7.42928
3.29824	7.49689
3.29614	7.42665
3.29405	7.37855
3.29196	7.35099
3.28987	7.29025
3.28778	7.36688
3.2857	7.39366
3.28362	7.39965
3.28154	7.42486
3.27946	7.38509
3.27739	7.36885
3.27532	7.48553
3.27325	7.59341
3.27119	7.53969
3.26913	7.40355
3.26707	7.4648
3.26501	7.54595
3.26295	7.43453
3.2609	7.29785
3.25885	7.3793
3.2568	7.49482
3.25476	7.47347
3.25272	7.40684
3.25068	7.42739
3.24864	7.44061
3.24661	7.46366
3.24458	7.49047
3.24255	7.45436
3.24052	7.34703
3.2385	7.38282
3.23648	7.41276
3.23446	7.4247
3.23244	7.43124
3.23043	7.41793
3.22841	7.37808
3.2264	7.32725
3.2244	7.36999
3.22239	7.42042
3.22039	7.38817
3.21839	7.51522
3.2164	7.58936
3.2144	7.48024
3.21241	7.31051
3.21042	7.29521
3.20844	7.37636
3.20645	7.40323
3.20447	7.48643
3.20249	7.396
3.20051	7.20334
3.19854	7.14224
3.19657	7.26883
3.1946	7.37704
3.19263	7.28545
3.19067	7.24781
3.1887	7.28943
3.18674	7.33728
3.18479	7.38812
3.18283	7.37913
3.18088	7.37914
3.17893	7.36939
3.17698	7.35824
3.17504	7.31588
3.17309	7.33266
3.17115	7.30089
3.16921	7.26729
3.16728	7.25918
3.16534	7.42936
3.16341	7.46851
3.16148	7.34982
3.15956	7.30263
3.15763	7.31355
3.15571	7.24817
3.15379	7.18849
3.15187	7.23998
3.14996	7.2383
3.14805	7.29367
3.14614	7.37102
3.14423	7.34278
3.14232	7.27585
3.14042	7.24556
3.13852	7.32501
3.13662	7.33315
3.13472	7.34318
3.13283	7.30482
3.13094	7.16246
3.12905	7.1727
3.12716	7.17796
3.12528	7.25729
3.12339	7.33833
3.12151	7.29602
3.11964	7.22384
3.11776	7.2618
3.11589	7.36482
3.11401	7.35453
3.11214	7.21835
3.11028	7.16355
3.10841	7.27956
3.10655	7.24979
3.10469	7.27359
3.10283	7.36705
3.10098	7.35068
3.09912	7.26364
3.09727	7.27654
3.09542	7.29095
3.09358	7.2128
3.09173	7.14144
3.08989	7.25368
3.08805	7.3676
3.08621	7.34739
3.08437	7.33802
3.08254	7.3719
3.08071	7.39759
3.07888	7.25126
3.07705	7.18412
3.07523	7.17463
3.0734	7.11748
3.07158	7.2485
3.06977	7.3693
3.06795	7.31169
3.06613	7.29147
3.06432	7.28577
3.06251	7.17249
3.0607	7.1903
3.0589	7.22886
3.0571	7.18999
3.05529	7.22267
3.05349	7.26598
3.0517	7.30137
3.0499	7.23788
3.04811	7.18525
3.04632	7.35902
3.04453	7.48849
3.04274	7.39844
3.04096	7.25175
3.03918	7.06337
3.0374	6.96584
3.03562	7.05022
3.03384	7.32825
3.03207	7.36685
3.03029	7.22351
3.02852	7.25646
3.02676	7.37731
3.02499	7.28934
3.02323	7.15707
3.02146	7.30558
3.0197	7.36652
3.01795	7.26515
3.01619	7.24365
3.01444	7.33838
3.01269	7.38981
3.01094	7.38046
3.00919	7.38521
3.00744	7.35794
3.0057	7.21942
3.00396	7.18503
3.00222	7.26734
3.00048	7.28913
2.99875	7.17643
2.99701	7.20173
2.99528	7.49306
2.99355	7.52245
2.99183	7.23702
2.9901	7.09051
2.98838	7.12402
2.98666	6.97756
2.98494	6.90841
2.98322	6.98425
2.9815	7.05425
2.97979	7.12493
2.97808	7.21332
2.97637	7.38633
2.97466	7.38294
2.97295	7.31594
2.97125	7.19696
2.96955	7.1625
2.96785	7.14166
2.96615	7.21323
2.96446	7.10278
2.96276	6.95342
2.96107	7.04921
2.95938	7.12241
2.95769	7.30378
2.95601	7.39395
2.95432	7.37623
2.95264	7.26675
2.95096	7.18243
2.94928	7.2469
2.9476	7.30434
2.94593	7.16883
2.94425	7.05546
2.94258	7.05569
2.94092	7.16791
2.93925	7.19715
2.93758	7.07844
2.93592	7.06017
2.93426	7.14688
2.9326	7.096
2.93094	6.98151
2.92928	7.01342
2.92763	7.08833
2.92598	7.15949
2.92433	7.21198
2.92268	7.08462
2.92103	6.96668
2.91939	6.98003
2.91775	6.95976
2.9161	6.9463
2.91447	7.04661
2.91283	7.20906
2.91119	7.25169
2.90956	7.18022
2.90793	7.09138
2.9063	7.00403
2.90467	7.05037
2.90304	7.10321
2.90142	7.04575
2.89979	7.09786
2.89817	7.15399
2.89656	7.04777
2.89494	6.97536
2.89332	6.93733
2.89171	6.97847
2.8901	7.03189
2.88849	7.03775
2.88688	7.03436
2.88527	6.94193
2.88367	6.90282
2.88206	7.12611
2.88046	7.26842
2.87886	7.12843
2.87727	6.99577
2.87567	6.96966
2.87408	7.06771
2.87248	7.2036
2.87089	7.22948
2.8693	7.13343
2.86772	7.04026
2.86613	7.10574
2.86455	7.05209
2.86297	6.90458
2.86139	6.94897
2.85981	7.10062
2.85823	7.17361
2.85666	7.13311
2.85508	7.12506
2.85351	7.0491
2.85194	7.00243
2.85038	7.02985
2.84881	6.92245
2.84724	6.96648
2.84568	7.10353
2.84412	7.05509
2.84256	7.06155
2.841	7.1737
2.83945	7.10849
2.83789	6.94245
2.83634	6.85138
2.83479	6.82952
2.83324	6.79372
2.83169	6.85597
2.83015	6.92778
2.82861	6.9622
2.82706	7.1182
2.82552	7.10092
2.82398	7.01879
2.82245	7.03009
2.82091	7.01128
2.81938	7.08511
2.81784	7.0832
2.81631	7.02696
2.81479	6.97427
2.81326	6.85542
2.81173	6.8009
2.81021	6.79104
2.80869	6.83347
2.80716	6.89183
2.80565	7.00377
2.80413	7.09368
2.80261	7.08056
2.8011	7.07157
2.79959	7.04708
2.79808	6.89228
2.79657	6.86263
2.79506	6.83497
2.79355	6.86287
2.79205	6.84499
2.79055	6.8666
2.78904	6.89237
2.78754	6.91513
2.78605	6.91682
2.78455	6.85791
2.78306	6.76646
2.78156	6.83433
2.78007	6.78245
2.77858	6.80732
2.77709	6.94217
2.77561	6.94498
2.77412	7.02713
2.77264	6.96013
2.77116	6.76829
2.76968	6.82588
2.7682	6.97337
2.76672	6.83037
2.76524	6.79112
2.76377	6.99396
2.7623	7.07543
2.76083	6.94536
2.75936	6.87895
2.75789	6.81546
2.75642	6.85239
2.75496	6.76363
2.7535	6.66149
2.75203	6.7348
2.75057	6.88075
2.74912	6.8702
2.74766	6.80587
2.7462	6.77013
2.74475	6.74608
2.7433	6.71143
2.74185	6.82467
2.7404	6.9234
2.73895	6.80205
2.7375	6.6342
2.73606	6.61095
2.73462	6.78838
2.73318	6.86271
2.73174	6.80577
2.7303	6.77879
2.72886	6.79243
2.72742	6.81785
2.72599	6.85856
2.72456	6.83104
2.72313	6.81836
2.7217	6.95386
2.72027	6.97385
2.71884	6.86505
2.71742	6.78184
2.71599	6.71006
2.71457	6.78525
2.71315	6.84934
2.71173	6.83423
2.71032	6.77231
2.7089	6.76407
2.70748	6.724
2.70607	6.83707
2.70466	6.87516
2.70325	6.79093
2.70184	6.79305
2.70043	6.81738
2.69903	6.87749
2.69762	6.88033
2.69622	6.82552
2.69482	6.83962
2.69342	6.7846
2.69202	6.72381
2.69062	6.62742
2.68923	6.73445
2.68783	6.86795
2.68644	6.84386
2.68505	6.79449
2.68366	6.92903
2.68227	6.96069
2.68089	6.90434
2.6795	6.87159
2.67812	6.92461
2.67673	6.88422
2.67535	6.81231
2.67397	6.79645
2.6726	6.82852
2.67122	6.83426
2.66984	6.80573
2.66847	6.80956
2.6671	6.8048
2.66572	6.82969
2.66435	7.00278
2.66299	7.1022
2.66162	7.0161
2.66025	6.92349
2.65889	6.89665
2.65753	6.77697
2.65616	6.69655
2.65481	6.59097
2.65345	6.74972
2.65209	6.78455
2.65073	6.73374
2.64938	6.71849
2.64803	6.73938
2.64667	6.84787
2.64532	6.8962
2.64397	6.73233
2.64263	6.76471
2.64128	6.71376
2.63994	6.78592
2.63859	6.93812
2.63725	6.83905
2.63591	6.80553
2.63457	6.8952
2.63323	6.84409
2.6319	6.82533
2.63056	6.87796
2.62923	6.82592
2.62789	6.8029
2.62656	6.75705
2.62523	6.65258
2.6239	6.72562
2.62258	6.73446
2.62125	6.74725
2.61993	6.91223
2.6186	6.89717
2.61728	6.72292
2.61596	6.70328
2.61464	6.81573
2.61332	6.89741
2.61201	6.79846
2.61069	6.7536
2.60938	6.81027
2.60807	6.82935
2.60675	6.81298
2.60544	6.73775
2.60414	6.66216
2.60283	6.68269
2.60152	6.66576
2.60022	6.64678
2.59891	6.76507
2.59761	6.74516
2.59631	6.76345
2.59501	6.8191
2.59371	6.71292
2.59242	6.66368
2.59112	6.72751
2.58983	6.76278
2.58853	6.78286
2.58724	6.77485
2.58595	6.6397
2.58466	6.61728
2.58338	6.73107
2.58209	6.65006
2.5808	6.57469
2.57952	6.63903
2.57824	6.74029
2.57695	6.7747
2.57567	6.71147
2.5744	6.75903
2.57312	6.72168
2.57184	6.5897
2.57057	6.67602
2.56929	6.72457
2.56802	6.68681
2.56675	6.7237
2.56548	6.61328
2.56421	6.62507
2.56294	6.71058
2.56168	6.60393
2.56041	6.56616
2.55915	6.64412
2.55789	6.63216
2.55662	6.70408
2.55536	6.79281
2.5541	6.82636
2.55285	6.74169
2.55159	6.60117
2.55034	6.71632
2.54908	6.70724
2.54783	6.68343
2.54658	6.7366
2.54533	6.69221
2.54408	6.68573
2.54283	6.64999
2.54159	6.75993
2.54034	6.92993
2.5391	6.8491
2.53785	6.83133
2.53661	6.75132
2.53537	6.6469
2.53413	6.61585
2.53289	6.58999
2.53166	6.66165
2.53042	6.67379
2.52919	6.61151
2.52795	6.68714
2.52672	6.79884
2.52549	6.88573
2.52426	6.77986
2.52303	6.64572
2.52181	6.5504
2.52058	6.55917
2.51936	6.64137
2.51813	6.65226
2.51691	6.63117
2.51569	6.63715
2.51447	6.5874
2.51325	6.6187
2.51203	6.62365
2.51082	6.62649
2.5096	6.62209
2.50839	6.71974
2.50717	6.80941
2.50596	6.81406
2.50475	6.7783
2.50354	6.73206
2.50233	6.62531
2.50113	6.36719
2.49992	6.40347
2.49872	6.56261
2.49751	6.52242
2.49631	6.49856
2.49511	6.53428
2.49391	6.5567
2.49271	6.54764
2.49151	6.57593
2.49031	6.79715
2.48912	6.74548
2.48792	6.55413
2.48673	6.61076
2.48554	6.63908
2.48435	6.67552
2.48316	6.72982
2.48197	6.71344
2.48078	6.65048
2.4796	6.59254
2.47841	6.64329
2.47723	6.79401
2.47604	6.73014
2.47486	6.56844
2.47368	6.4764
2.4725	6.58884
2.47132	6.71058
2.47014	6.6094
2.46897	6.53037
2.46779	6.48055
2.46662	6.55379
2.46545	6.67541
2.46427	6.66385
2.4631	6.49687
2.46193	6.58173
2.46077	6.73672
2.4596	6.75652
2.45843	6.70157
2.45727	6.59754
2.4561	6.56317
2.45494	6.5979
2.45378	6.57783
2.45262	6.47608
2.45146	6.46397
2.4503	6.67653
2.44914	6.65034
2.44799	6.52518
2.44683	6.52957
2.44568	6.65598
2.44452	6.51117
2.44337	6.39565
2.44222	6.51901
2.44107	6.71869
2.43992	6.6828
2.43877	6.56921
2.43763	6.5722
2.43648	6.5797
2.43534	6.50237
2.43419	6.45741
2.43305	6.55564
2.43191	6.60581
2.43077	6.54759
2.42963	6.50694
2.42849	6.55053
2.42736	6.43401
2.42622	6.32365
2.42509	6.54092
2.42395	6.63422
2.42282	6.35001
2.42169	6.28425
2.42056	6.45536
2.41943	6.44334
2.4183	6.60724
2.41717	6.69383
2.41605	6.72369
2.41492	6.79516
2.4138	6.73253
2.41267	6.607
2.41155	6.54358
2.41043	6.60671
2.40931	6.58853
2.40819	6.45801
2.40707	6.48245
2.40595	6.4886
2.40484	6.42178
2.40372	6.38913
2.40261	6.44364
2.4015	6.481
2.40039	6.52447
2.39928	6.60641
2.39817	6.67752
2.39706	6.51504
2.39595	6.3765
2.39484	6.41484
2.39374	6.5131
2.39263	6.53095
2.39153	6.6079
2.39043	6.46112
2.38932	6.34677
2.38822	6.44437
2.38712	6.48195
2.38603	6.47542
2.38493	6.51142
2.38383	6.47319
2.38274	6.50399
2.38164	6.57919
2.38055	6.61416
2.37946	6.54504
2.37836	6.47772
2.37727	6.50648
2.37618	6.5477
2.3751	6.46192
2.37401	6.41065
2.37292	6.43997
2.37184	6.39877
2.37075	6.40675
2.36967	6.48381
2.36859	6.50553
2.3675	6.45984
2.36642	6.46665
2.36534	6.53352
2.36427	6.50451
2.36319	6.61488
2.36211	6.64107
2.36104	6.45461
2.35996	6.4709
2.35889	6.54321
2.35781	6.50985
2.35674	6.57923
2.35567	6.74531
2.3546	6.64226
2.35353	6.42258
2.35247	6.50239
2.3514	6.56916
2.35033	6.43039
2.34927	6.34143
2.3482	6.44655
2.34714	6.44537
2.34608	6.43672
2.34502	6.49343
2.34396	6.4921
2.3429	6.46107
2.34184	6.49435
2.34078	6.38323
2.33973	6.37311
2.33867	6.59855
2.33762	6.59985
2.33656	6.4748
2.33551	6.44275
2.33446	6.47864
2.33341	6.48678
2.33236	6.52704
2.33131	6.50283
2.33026	6.48209
2.32922	6.5696
2.32817	6.51681
2.32712	6.2947
2.32608	6.25911
2.32504	6.33472
2.324	6.43109
2.32295	6.40369
2.32191	6.3114
2.32087	6.47341
2.31984	6.56656
2.3188	6.37472
2.31776	6.42758
2.31673	6.48036
2.31569	6.39237
2.31466	6.44556
2.31362	6.50702
2.31259	6.43867
2.31156	6.51736
2.31053	6.49675
2.3095	6.39136
2.30847	6.41017
2.30745	6.52742
2.30642	6.47318
2.3054	6.36684
2.30437	6.54643
2.30335	6.62678
2.30232	6.43844
2.3013	6.26056
2.30028	6.15684
2.29926	6.23842
2.29824	6.46946
2.29722	6.56383
2.29621	6.61189
2.29519	6.5901
2.29417	6.4238
2.29316	6.47849
2.29215	6.53542
2.29113	6.39222
2.29012	6.34628
2.28911	6.49058
2.2881	6.52596
2.28709	6.5182
2.28608	6.53139
2.28507	6.50554
2.28407	6.51765
2.28306	6.40289
2.28206	6.26256
2.28105	6.3564
2.28005	6.4972
2.27905	6.47954
2.27805	6.466
2.27705	6.39827
2.27605	6.27709
2.27505	6.26275
2.27405	6.20961
2.27305	6.249
2.27206	6.44197
2.27106	6.6047
2.27007	6.39414
2.26907	6.36651
2.26808	6.52172
2.26709	6.45583
2.2661	6.35853
2.26511	6.5378
2.26412	6.59938
2.26313	6.45157
2.26214	6.30312
2.26116	6.3936
2.26017	6.38234
2.25919	6.37343
2.2582	6.36446
2.25722	6.38174
2.25624	6.52712
2.25526	6.51849
2.25428	6.29822
2.2533	6.2825
2.25232	6.4859
2.25134	6.59614
2.25036	6.45479
2.24939	6.38294
2.24841	6.2833
2.24744	6.25461
2.24646	6.38942
2.24549	6.55104
2.24452	6.52296
2.24355	6.31197
2.24257	6.34018
2.24161	6.57787
2.24064	6.57218
2.23967	6.29538
2.2387	6.10731
2.23774	6.13109
2.23677	6.35081
2.23581	6.56189
2.23484	6.61235
2.23388	6.41018
2.23292	6.28025
2.23196	6.44899
2.231	6.45109
2.23004	6.30708
2.22908	6.32942
2.22812	6.3669
2.22716	6.275
2.22621	6.2153
2.22525	6.32792
2.2243	6.4012
2.22334	6.41157
2.22239	6.49024
2.22144	6.5769
2.22049	6.517
2.21953	6.28084
2.21859	6.29563
2.21764	6.48194
2.21669	6.49643
2.21574	6.39362
2.21479	6.20299
2.21385	6.1703
2.2129	6.29392
2.21196	6.45373
2.21102	6.4755
2.21007	6.42427
2.20913	6.49869
2.20819	6.44919
2.20725	6.33803
2.20631	6.23296
2.20537	6.23464
2.20444	6.15542
2.2035	6.22368
2.20256	6.36855
2.20163	6.44061
2.20069	6.34539
2.19976	6.31384
2.19883	6.46457
2.19789	6.48685
2.19696	6.37606
2.19603	6.31596
2.1951	6.18181
2.19417	6.26694
2.19325	6.41518
2.19232	6.37085
2.19139	6.292
2.19047	6.15169
2.18954	6.12521
2.18862	6.39291
2.18769	6.48958
2.18677	6.41831
2.18585	6.40623
2.18493	6.36122
2.18401	6.32379
2.18309	6.38041
2.18217	6.37038
2.18125	6.3979
2.18033	6.42395
2.17942	6.42761
2.1785	6.39243
2.17759	6.26335
2.17667	6.27436
2.17576	6.43408
2.17485	6.48284
2.17393	6.3371
2.17302	6.14074
2.17211	6.23689
2.1712	6.32179
2.17029	6.22922
2.16939	6.2315
2.16848	6.27358
2.16757	6.22379
2.16667	6.32418
2.16576	6.50116
2.16486	6.53961
2.16395	6.42438
2.16305	6.34313
2.16215	6.26106
2.16125	6.39247
2.16035	6.37071
2.15945	6.17391
2.15855	6.28092
2.15765	6.46838
2.15675	6.44186
2.15586	6.43872
2.15496	6.5916
2.15406	6.43034
2.15317	6.11814
2.15228	6.19547
2.15138	6.37357
2.15049	6.46017
2.1496	6.52181
2.14871	6.46723
2.14782	6.24583
2.14693	6.22169
2.14604	6.09207
2.14515	6.03221
2.14427	6.21851
2.14338	6.33181
2.14249	6.42342
2.14161	6.36874
2.14072	6.28164
2.13984	6.51024
2.13896	6.52303
2.13808	6.34683
2.13719	6.32973
2.13631	6.4827
2.13543	6.5818
2.13455	6.38595
2.13368	6.05889
2.1328	6.25586
2.13192	6.41232
2.13105	6.37917
2.13017	6.32337
2.1293	6.33907
2.12842	6.23136
2.12755	6.18692
2.12668	6.16062
2.1258	6.23807
2.12493	6.36716
2.12406	6.38735
2.12319	6.15936
2.12232	5.96491
2.12145	6.0966
2.12059	6.31547
2.11972	6.34678
2.11885	6.32154
2.11799	6.35472
2.11712	6.31697
2.11626	6.21865
2.1154	6.02961
2.11453	6.11463
2.11367	6.2981
2.11281	6.27174
2.11195	6.28372
2.11109	6.15342
2.11023	6.22973
2.10937	6.32415
2.10851	6.47075
2.10766	6.65642
2.1068	6.44313
2.10594	6.07368
2.10509	6.17926
2.10423	6.43068
2.10338	6.22175
2.10253	6.24151
2.10168	6.2433
2.10082	6.33305
2.09997	6.56225
2.09912	6.54751
2.09827	6.52653
2.09742	6.45837
2.09658	6.36834
2.09573	6.14168
2.09488	5.86114
2.09404	5.78338
2.09319	6.0595
2.09235	6.24745
2.0915	6.11646
2.09066	6.14241
2.08982	6.1974
2.08897	6.24357
2.08813	6.16344
2.08729	6.09909
2.08645	6.34358
2.08561	6.41962
2.08477	6.19274
2.08394	5.95894
2.0831	6.15805
2.08226	6.26642
2.08143	5.96221
2.08059	5.93653
2.07976	6.31791
2.07892	6.37497
2.07809	6.20113
2.07726	6.45574
2.07643	6.73902
2.07559	6.11565
2.07476	5.77841
2.07393	6.32142
2.0731	6.61279
2.07228	5.9855
2.07145	5.71773
2.07062	5.97245
2.06979	6.04471
2.06897	6.26326
2.06814	6.5177
2.06732	6.65186
2.06649	6.68003
2.06567	6.30499
2.06485	6.10684
2.06403	5.94
2.0632	5.94645
2.06238	6.23276
2.06156	6.25014
2.06074	6.1997
2.05993	6.16804
2.05911	6.33691
2.05829	6.28036
2.05747	6.13867
2.05666	6.15538
2.05584	6.22329
2.05503	6.18027
2.05421	6.09297
2.0534	6.08425
2.05259	6.22702
2.05177	6.50495
2.05096	6.76542
2.05015	6.47165
2.04934	6.17823
2.04853	6.19281
2.04772	6.30531
2.04691	6.30094
2.04611	6.17751
2.0453	6.29572
2.04449	6.40356
2.04369	6.35344
2.04288	6.25664
2.04208	6.18605
2.04127	6.30707
2.04047	6.46103
2.03967	6.63152
2.03886	6.40771
2.03806	6.21968
2.03726	6.26486
2.03646	6.28765
2.03566	6.32376
2.03486	6.35207
2.03407	6.45817
2.03327	6.29998
2.03247	6.01567
2.03167	6.14672
2.03088	6.60867
2.03008	6.58201
2.02929	6.30369
2.0285	6.26939
2.0277	6.07537
2.02691	6.16711
2.02612	6.43714
2.02533	6.16038
2.02453	5.95653
2.02374	6.34833
2.02295	6.4381
2.02217	6.10733
2.02138	6.06271
2.02059	6.15815
2.0198	6.21014
2.01902	6.14834
2.01823	6.04704
2.01744	6.05144
2.01666	6.14758
2.01588	6.08439
2.01509	6.06778
2.01431	6.21347
2.01353	6.31594
2.01275	6.4013
2.01196	6.31018
2.01118	6.16154
2.0104	6.021
2.00963	6.06582
2.00885	6.09738
2.00807	6.20411
2.00729	6.24992
2.00651	6.05239
2.00574	6.05884
2.00496	6.17149
2.00419	6.20432
2.00341	6.0765
2.00264	6.14665
2.00187	6.25392
2.00109	6.21591
2.00032	6.29663
