Name: Anorthosite
Type: Rock
Class: Igneous
Subclass:  Mafic 
Particle Size: Solid surface
Sample No.: Ward42.txt
Owner: JPL
Wavelength range:  VNIR SWIR IR 
Origin: Ward's Collection of American Rocks.  Sample locality - near Elizabethtown, Essex County, New York.
Collected by:  Ward's Natural Science
Description: The hand specimen shows a nearly pure aggregate of plagioclase.
Larger blue feldspars are conspicuous in a finer granulated, lighter-
colored groundmass.  Dark silicates are sometimes present.
Geologic age - Pre-Cambrian.


Measurement: Hemispherical reflectance
First Column: X
Second Column: Y
X Units: Wavelength (micrometers)
Y Units: Reflectance (percent)
First X Value: 2.500
Last X Value: 0.400
Number of X Values: 2101
Additional information: None

2.500  8.800116
2.499  7.996449
2.498  8.862072
2.497  8.426055
2.496  8.323089
2.495  8.510951
2.494  8.514345
2.493  8.468561
2.492  8.493065
2.491  8.395047
2.490  8.576064
2.489  8.237527
2.488  8.520438
2.487  8.363992
2.486  8.416423
2.485  8.309596
2.484  8.482898
2.483  8.361704
2.482  8.433963
2.481  8.395364
2.480  8.385167
2.479  8.285493
2.478  8.627595
2.477  8.296901
2.476  8.520841
2.475  8.380166
2.474  8.425144
2.473  8.242044
2.472  8.394398
2.471  8.251569
2.470  8.496420
2.469  8.179802
2.468  8.448415
2.467  8.292482
2.466  8.454146
2.465  8.326440
2.464  8.591875
2.463  8.233671
2.462  8.459302
2.461  8.287298
2.460  8.451090
2.459  8.157055
2.458  8.317769
2.457  8.251591
2.456  8.410187
2.455  8.160765
2.454  8.473486
2.453  8.223873
2.452  8.478631
2.451  8.199521
2.450  8.288188
2.449  8.236486
2.448  8.428386
2.447  8.290770
2.446  8.425023
2.445  8.163953
2.444  8.319359
2.443  8.259833
2.442  8.412581
2.441  8.231075
2.440  8.415058
2.439  8.343573
2.438  8.401870
2.437  8.281339
2.436  8.394701
2.435  8.311352
2.434  8.387631
2.433  8.264694
2.432  8.367056
2.431  8.353317
2.430  8.373477
2.429  8.347156
2.428  8.412160
2.427  8.288936
2.426  8.441121
2.425  8.315926
2.424  8.388091
2.423  8.371148
2.422  8.366220
2.421  8.325808
2.420  8.383911
2.419  8.307754
2.418  8.382067
2.417  8.391079
2.416  8.450638
2.415  8.370947
2.414  8.358474
2.413  8.314602
2.412  8.478624
2.411  8.370324
2.410  8.446053
2.409  8.387732
2.408  8.368899
2.407  8.311013
2.406  8.475712
2.405  8.450792
2.404  8.372121
2.403  8.328062
2.402  8.420276
2.401  8.375022
2.400  8.436033
2.399  8.366988
2.398  8.452109
2.397  8.321649
2.396  8.355015
2.395  8.422377
2.394  8.422679
2.393  8.311637
2.392  8.395436
2.391  8.429127
2.390  8.435136
2.389  8.299031
2.388  8.348395
2.387  8.353065
2.386  8.409828
2.385  8.337730
2.384  8.361051
2.383  8.379510
2.382  8.360760
2.381  8.367074
2.380  8.425584
2.379  8.312330
2.378  8.322846
2.377  8.321123
2.376  8.376359
2.375  8.370033
2.374  8.397949
2.373  8.344358
2.372  8.308533
2.371  8.332514
2.370  8.317450
2.369  8.301026
2.368  8.325739
2.367  8.271819
2.366  8.289988
2.365  8.304187
2.364  8.280257
2.363  8.258339
2.362  8.235481
2.361  8.194468
2.360  8.227815
2.359  8.252001
2.358  8.209340
2.357  8.210999
2.356  8.223737
2.355  8.221349
2.354  8.165157
2.353  8.225184
2.352  8.212139
2.351  8.143433
2.350  8.138735
2.349  8.121596
2.348  8.079236
2.347  8.123555
2.346  8.139537
2.345  8.134510
2.344  8.114015
2.343  8.148802
2.342  8.129419
2.341  8.167522
2.340  8.167908
2.339  8.095974
2.338  8.057529
2.337  8.106514
2.336  8.121185
2.335  8.135844
2.334  8.077099
2.333  8.079809
2.332  8.071938
2.331  8.122385
2.330  8.120231
2.329  8.135416
2.328  8.128588
2.327  8.138861
2.326  8.069114
2.325  8.088357
2.324  8.119181
2.323  8.174150
2.322  8.086897
2.321  8.094195
2.320  8.121741
2.319  8.126576
2.318  8.095301
2.317  8.123335
2.316  8.101340
2.315  8.146534
2.314  8.160054
2.313  8.128466
2.312  8.150791
2.311  8.196947
2.310  8.182213
2.309  8.232899
2.308  8.144160
2.307  8.177507
2.306  8.152754
2.305  8.227576
2.304  8.238560
2.303  8.165238
2.302  8.173136
2.301  8.242755
2.300  8.207450
2.299  8.217543
2.298  8.181134
2.297  8.219566
2.296  8.206759
2.295  8.265805
2.294  8.246705
2.293  8.231808
2.292  8.183109
2.291  8.239888
2.290  8.149875
2.289  8.221746
2.288  8.140991
2.287  8.184126
2.286  8.170633
2.285  8.244912
2.284  8.231232
2.283  8.220694
2.282  8.240056
2.281  8.231527
2.280  8.121115
2.279  8.207965
2.278  8.246342
2.277  8.233542
2.276  8.178982
2.275  8.256086
2.274  8.178370
2.273  8.254195
2.272  8.058684
2.271  8.204002
2.270  8.135836
2.269  8.098067
2.268  8.106482
2.267  8.178096
2.266  8.068071
2.265  8.210741
2.264  8.004333
2.263  8.080216
2.262  8.011669
2.261  8.108365
2.260  8.004540
2.259  8.150522
2.258  8.005510
2.257  8.097106
2.256  7.987146
2.255  8.015157
2.254  7.943565
2.253  8.078727
2.252  7.972782
2.251  8.095384
2.250  7.918062
2.249  7.980905
2.248  7.872554
2.247  8.019690
2.246  7.947751
2.245  7.932180
2.244  7.892162
2.243  8.023724
2.242  7.865147
2.241  8.011960
2.240  7.851329
2.239  7.944564
2.238  7.839306
2.237  7.996341
2.236  7.890969
2.235  7.902906
2.234  7.862287
2.233  8.002378
2.232  7.837593
2.231  7.925779
2.230  7.837831
2.229  7.946868
2.228  7.804403
2.227  7.883711
2.226  7.812220
2.225  7.917429
2.224  7.795657
2.223  7.865110
2.222  7.835585
2.221  7.888059
2.220  7.798121
2.219  7.883693
2.218  7.787583
2.217  7.835496
2.216  7.734580
2.215  7.783364
2.214  7.620315
2.213  7.912771
2.212  7.837191
2.211  7.605430
2.210  7.806535
2.209  7.721863
2.208  7.604806
2.207  7.689460
2.206  7.582278
2.205  7.779430
2.204  7.632363
2.203  7.763062
2.202  7.544282
2.201  7.697199
2.200  7.623071
2.199  7.761165
2.198  7.613979
2.197  7.674063
2.196  7.619802
2.195  7.773338
2.194  7.600158
2.193  7.747860
2.192  7.664383
2.191  7.737825
2.190  7.636921
2.189  7.776724
2.188  7.667507
2.187  7.831887
2.186  7.604593
2.185  7.762625
2.184  7.729329
2.183  7.758230
2.182  7.733470
2.181  7.751389
2.180  7.722775
2.179  7.816729
2.178  7.749828
2.177  7.869145
2.176  7.790648
2.175  7.913493
2.174  7.867533
2.173  7.901025
2.172  7.818870
2.171  7.954996
2.170  7.872013
2.169  7.931161
2.168  7.858144
2.167  7.931619
2.166  7.924281
2.165  7.979486
2.164  7.883053
2.163  7.941771
2.162  7.928390
2.161  8.045173
2.160  7.905502
2.159  8.015482
2.158  7.889803
2.157  8.012416
2.156  7.917537
2.155  8.013104
2.154  7.931436
2.153  8.021452
2.152  7.901168
2.151  8.042715
2.150  7.938744
2.149  7.979166
2.148  7.933729
2.147  7.966287
2.146  7.928340
2.145  7.990019
2.144  7.859250
2.143  7.948132
2.142  7.970628
2.141  7.954068
2.140  7.921770
2.139  7.909239
2.138  7.938094
2.137  7.959648
2.136  7.932684
2.135  7.937441
2.134  7.901983
2.133  7.990378
2.132  7.936836
2.131  7.915645
2.130  7.822554
2.129  7.895593
2.128  7.851568
2.127  7.912636
2.126  7.820119
2.125  7.849322
2.124  7.813945
2.123  7.862682
2.122  7.826879
2.121  7.830499
2.120  7.826005
2.119  7.836010
2.118  7.794450
2.117  7.812630
2.116  7.792237
2.115  7.782597
2.114  7.749242
2.113  7.758321
2.112  7.682738
2.111  7.684562
2.110  7.659037
2.109  7.684216
2.108  7.676099
2.107  7.726362
2.106  7.632652
2.105  7.660430
2.104  7.661534
2.103  7.680628
2.102  7.616237
2.101  7.639101
2.100  7.652347
2.099  7.656122
2.098  7.579230
2.097  7.619977
2.096  7.643745
2.095  7.596803
2.094  7.592487
2.093  7.632344
2.092  7.551944
2.091  7.593333
2.090  7.602205
2.089  7.564817
2.088  7.589119
2.087  7.639195
2.086  7.622373
2.085  7.594134
2.084  7.576878
2.083  7.617533
2.082  7.596372
2.081  7.610200
2.080  7.591851
2.079  7.569494
2.078  7.610031
2.077  7.574740
2.076  7.564204
2.075  7.536176
2.074  7.524491
2.073  7.562870
2.072  7.543830
2.071  7.579442
2.070  7.570673
2.069  7.539496
2.068  7.550316
2.067  7.509303
2.066  7.514713
2.065  7.515802
2.064  7.507093
2.063  7.527760
2.062  7.551103
2.061  7.499709
2.060  7.470661
2.059  7.448576
2.058  7.491460
2.057  7.489182
2.056  7.511854
2.055  7.458112
2.054  7.481159
2.053  7.489744
2.052  7.535749
2.051  7.503674
2.050  7.505551
2.049  7.494124
2.048  7.505913
2.047  7.478470
2.046  7.469840
2.045  7.495198
2.044  7.481554
2.043  7.436438
2.042  7.446358
2.041  7.422631
2.040  7.462522
2.039  7.443222
2.038  7.446819
2.037  7.428810
2.036  7.489894
2.035  7.477667
2.034  7.455067
2.033  7.485819
2.032  7.426472
2.031  7.395905
2.030  7.474120
2.029  7.378689
2.028  7.432965
2.027  7.363082
2.026  7.390903
2.025  7.335592
2.024  7.384504
2.023  7.360632
2.022  7.392424
2.021  7.339634
2.020  7.343286
2.019  7.307478
2.018  7.369803
2.017  7.312233
2.016  7.410387
2.015  7.335352
2.014  7.293858
2.013  7.378350
2.012  7.377719
2.011  7.330431
2.010  7.361136
2.009  7.296402
2.008  7.310226
2.007  7.267211
2.006  7.309533
2.005  7.323729
2.004  7.327017
2.003  7.289036
2.002  7.335814
2.001  7.316012
2.000  7.295385
1.999  7.279018
1.998  7.318349
1.997  7.229274
1.996  7.246907
1.995  7.242372
1.994  7.250827
1.993  7.273151
1.992  7.237496
1.991  7.168417
1.990  7.253658
1.989  7.196664
1.988  7.322186
1.987  7.255047
1.986  7.280499
1.985  7.232049
1.984  7.195759
1.983  7.182587
1.982  7.203955
1.981  7.152982
1.980  7.162323
1.979  7.108862
1.978  7.164906
1.977  7.139088
1.976  7.138184
1.975  7.141861
1.974  7.227600
1.973  7.094698
1.972  7.215609
1.971  7.102001
1.970  7.220564
1.969  7.136205
1.968  7.142996
1.967  7.005633
1.966  7.212071
1.965  7.140423
1.964  7.177852
1.963  7.045758
1.962  7.151321
1.961  6.964686
1.960  7.212863
1.959  7.059408
1.958  7.150593
1.957  7.014000
1.956  7.108735
1.955  7.065062
1.954  7.147108
1.953  7.129892
1.952  7.125890
1.951  7.028360
1.950  7.240430
1.949  7.019118
1.948  7.157654
1.947  7.004445
1.946  7.204845
1.945  7.003073
1.944  7.148685
1.943  7.050810
1.942  7.130894
1.941  7.041969
1.940  7.180925
1.939  6.946264
1.938  7.084042
1.937  6.976990
1.936  7.154085
1.935  7.047602
1.934  7.099743
1.933  6.951442
1.932  7.124898
1.931  7.022505
1.930  7.189510
1.929  6.993405
1.928  7.175356
1.927  7.059606
1.926  6.991043
1.925  7.061654
1.924  7.077643
1.923  7.067594
1.922  7.146444
1.921  7.003282
1.920  7.103989
1.919  6.959823
1.918  7.113314
1.917  7.103989
1.916  7.092772
1.915  7.017367
1.914  7.144587
1.913  6.947251
1.912  7.087517
1.911  6.967958
1.910  7.096325
1.909  6.939212
1.908  7.108231
1.907  6.933337
1.906  7.012642
1.905  6.940379
1.904  7.058169
1.903  6.980102
1.902  7.100721
1.901  6.929386
1.900  7.098833
1.899  7.085348
1.898  7.160842
1.897  7.038696
1.896  7.102285
1.895  7.099583
1.894  7.200016
1.893  7.133448
1.892  7.231562
1.891  7.110359
1.890  7.204203
1.889  7.121090
1.888  7.143852
1.887  7.179747
1.886  7.278835
1.885  7.168126
1.884  7.240489
1.883  7.113404
1.882  7.232654
1.881  7.090072
1.880  7.208293
1.879  7.164762
1.878  7.129534
1.877  7.168584
1.876  7.202387
1.875  7.145673
1.874  7.208362
1.873  7.204524
1.872  7.212393
1.871  7.131849
1.870  7.266778
1.869  7.156058
1.868  7.242240
1.867  7.166278
1.866  7.245002
1.865  7.206772
1.864  7.307431
1.863  7.170020
1.862  7.261563
1.861  7.139686
1.860  7.312239
1.859  7.144780
1.858  7.226956
1.857  7.212538
1.856  7.197822
1.855  7.104438
1.854  7.164251
1.853  7.151794
1.852  7.203602
1.851  7.145138
1.850  7.179446
1.849  7.103055
1.848  7.186275
1.847  7.166213
1.846  7.197760
1.845  7.110059
1.844  7.253444
1.843  7.185083
1.842  7.127444
1.841  7.055675
1.840  7.139971
1.839  7.096021
1.838  7.151954
1.837  7.053903
1.836  7.132961
1.835  7.148010
1.834  7.212824
1.833  7.159330
1.832  7.213877
1.831  7.100914
1.830  7.239025
1.829  7.132224
1.828  7.148479
1.827  7.098673
1.826  7.138332
1.825  7.114734
1.824  7.146274
1.823  7.103177
1.822  7.133989
1.821  7.097836
1.820  7.134181
1.819  7.107064
1.818  7.201578
1.817  7.192239
1.816  7.148804
1.815  7.094800
1.814  7.123536
1.813  7.178035
1.812  7.190014
1.811  7.086900
1.810  7.133828
1.809  7.124473
1.808  7.108743
1.807  7.120029
1.806  7.141026
1.805  7.103548
1.804  7.140452
1.803  7.101843
1.802  7.087003
1.801  7.075956
1.800  7.098884
1.799  7.084168
1.798  7.075408
1.797  7.066709
1.796  7.107864
1.795  7.126538
1.794  7.107960
1.793  7.105340
1.792  7.108597
1.791  7.012310
1.790  7.068358
1.789  7.140831
1.788  7.055770
1.787  7.071558
1.786  7.091792
1.785  7.070392
1.784  7.077647
1.783  7.092961
1.782  7.077997
1.781  7.013208
1.780  7.001350
1.779  7.073065
1.778  7.050138
1.777  7.070402
1.776  7.103076
1.775  7.047177
1.774  7.056199
1.773  7.076565
1.772  7.066299
1.771  7.109472
1.770  7.028721
1.769  7.009749
1.768  6.992408
1.767  7.055329
1.766  7.072644
1.765  7.083916
1.764  7.094127
1.763  7.110775
1.762  7.037825
1.761  7.061942
1.760  7.017944
1.759  7.022762
1.758  6.960450
1.757  7.017835
1.756  7.012222
1.755  7.005960
1.754  6.965241
1.753  7.020815
1.752  7.081677
1.751  7.018420
1.750  6.964787
1.749  7.091391
1.748  7.072610
1.747  7.058634
1.746  7.001313
1.745  7.056191
1.744  6.979631
1.743  7.021280
1.742  6.978205
1.741  6.992972
1.740  7.024421
1.739  7.056237
1.738  6.959547
1.737  7.084168
1.736  7.047480
1.735  7.055560
1.734  6.951703
1.733  7.024846
1.732  6.992561
1.731  7.044023
1.730  7.010977
1.729  7.002304
1.728  6.902537
1.727  6.976959
1.726  6.929523
1.725  6.993056
1.724  6.957665
1.723  7.017167
1.722  7.033501
1.721  7.022962
1.720  6.968907
1.719  7.013939
1.718  6.994094
1.717  7.014141
1.716  6.989809
1.715  6.993276
1.714  6.975421
1.713  7.027613
1.712  6.939973
1.711  7.021013
1.710  6.967725
1.709  6.995768
1.708  6.973287
1.707  7.100185
1.706  6.940151
1.705  7.050025
1.704  6.931878
1.703  6.971001
1.702  6.954629
1.701  7.057284
1.700  6.939437
1.699  7.012208
1.698  6.912820
1.697  7.069728
1.696  6.935783
1.695  6.978753
1.694  6.899125
1.693  6.939503
1.692  6.847598
1.691  7.022268
1.690  6.902596
1.689  7.001588
1.688  6.900897
1.687  7.030176
1.686  6.850144
1.685  7.022478
1.684  6.932547
1.683  7.013692
1.682  6.909965
1.681  6.976695
1.680  6.932318
1.679  7.043865
1.678  6.892690
1.677  7.005922
1.676  6.976072
1.675  6.982142
1.674  6.905900
1.673  6.927671
1.672  6.910295
1.671  7.078567
1.670  6.908808
1.669  7.030638
1.668  6.743373
1.667  7.074765
1.666  6.870309
1.665  6.990760
1.664  6.860188
1.663  7.016248
1.662  6.897335
1.661  7.041711
1.660  6.929633
1.659  6.982768
1.658  6.910096
1.657  7.046617
1.656  6.856457
1.655  6.952663
1.654  6.808962
1.653  6.980426
1.652  6.925008
1.651  7.038443
1.650  6.779681
1.649  7.120120
1.648  6.829262
1.647  7.038746
1.646  6.815962
1.645  7.058738
1.644  6.834080
1.643  6.991691
1.642  6.905477
1.641  6.869247
1.640  6.963291
1.639  6.977783
1.638  6.837638
1.637  6.981897
1.636  6.846160
1.635  7.047343
1.634  6.811486
1.633  6.993120
1.632  6.833752
1.631  7.001991
1.630  6.944676
1.629  6.989861
1.628  6.847841
1.627  6.965992
1.626  6.914448
1.625  7.078752
1.624  6.872862
1.623  6.921986
1.622  6.836449
1.621  6.996196
1.620  6.910675
1.619  6.947727
1.618  6.836253
1.617  6.987389
1.616  6.831784
1.615  6.997660
1.614  6.870859
1.613  6.980591
1.612  6.853883
1.611  7.000831
1.610  6.897200
1.609  6.937127
1.608  6.860361
1.607  6.931520
1.606  6.794079
1.605  6.971252
1.604  6.840433
1.603  6.989584
1.602  6.941737
1.601  6.953902
1.600  6.863714
1.599  6.893406
1.598  6.888582
1.597  6.923293
1.596  6.805441
1.595  6.870796
1.594  6.895454
1.593  6.890442
1.592  6.874658
1.591  6.990733
1.590  6.873377
1.589  7.001762
1.588  6.853697
1.587  6.933282
1.586  6.877383
1.585  6.935407
1.584  6.849695
1.583  6.906670
1.582  6.875712
1.581  6.934806
1.580  6.884657
1.579  6.954176
1.578  6.887367
1.577  6.943236
1.576  6.837948
1.575  6.968912
1.574  6.898782
1.573  6.926502
1.572  6.843799
1.571  6.978378
1.570  6.883126
1.569  6.924610
1.568  6.887554
1.567  6.949585
1.566  6.919284
1.565  6.956024
1.564  6.892969
1.563  6.912603
1.562  6.903701
1.561  6.904867
1.560  6.819285
1.559  6.887600
1.558  6.868405
1.557  7.001945
1.556  6.830315
1.555  6.916367
1.554  6.887895
1.553  6.966987
1.552  6.843612
1.551  6.927194
1.550  6.833017
1.549  6.858260
1.548  6.869325
1.547  6.897087
1.546  6.863132
1.545  6.877594
1.544  6.851861
1.543  6.906264
1.542  6.936734
1.541  6.909142
1.540  6.940083
1.539  6.909067
1.538  6.878634
1.537  6.901362
1.536  6.922280
1.535  6.981747
1.534  6.887747
1.533  6.881609
1.532  6.814401
1.531  6.897640
1.530  6.924304
1.529  6.917394
1.528  6.868622
1.527  6.887847
1.526  6.868335
1.525  6.918277
1.524  6.904253
1.523  6.854667
1.522  6.918433
1.521  6.898344
1.520  6.866208
1.519  6.905817
1.518  6.903195
1.517  6.894230
1.516  6.861969
1.515  6.927752
1.514  6.856754
1.513  6.905588
1.512  6.899190
1.511  6.861377
1.510  6.924443
1.509  6.951810
1.508  6.930175
1.507  6.906037
1.506  6.867035
1.505  6.911463
1.504  6.893144
1.503  6.851866
1.502  6.865438
1.501  6.866684
1.500  6.884565
1.499  6.909790
1.498  6.896196
1.497  6.895366
1.496  6.875788
1.495  6.861655
1.494  6.863430
1.493  6.853452
1.492  6.865993
1.491  6.858815
1.490  6.905226
1.489  6.911771
1.488  6.966742
1.487  6.911898
1.486  6.882064
1.485  6.883659
1.484  6.930551
1.483  6.903928
1.482  6.928745
1.481  6.852061
1.480  6.819382
1.479  6.910323
1.478  6.931273
1.477  6.854505
1.476  6.938722
1.475  6.911759
1.474  6.918720
1.473  6.940479
1.472  6.942142
1.471  6.918100
1.470  6.844700
1.469  6.828584
1.468  6.875858
1.467  6.831310
1.466  6.905752
1.465  6.975466
1.464  6.884204
1.463  6.825965
1.462  6.890356
1.461  6.886760
1.460  6.883601
1.459  6.868764
1.458  6.930038
1.457  6.864418
1.456  6.940267
1.455  6.871646
1.454  6.956633
1.453  6.880143
1.452  6.934118
1.451  6.874210
1.450  6.899802
1.449  6.896220
1.448  6.937819
1.447  6.860917
1.446  6.913979
1.445  6.828921
1.444  6.908700
1.443  6.841347
1.442  6.898106
1.441  6.838812
1.440  6.891960
1.439  6.881965
1.438  6.894468
1.437  6.810376
1.436  6.916373
1.435  6.794414
1.434  6.877041
1.433  6.836148
1.432  6.855819
1.431  6.829636
1.430  6.851883
1.429  6.787792
1.428  6.894796
1.427  6.849929
1.426  6.917673
1.425  6.749716
1.424  6.854670
1.423  6.879266
1.422  6.828261
1.421  6.775942
1.420  6.756770
1.419  6.782078
1.418  6.802213
1.417  6.747944
1.416  6.843479
1.415  6.757990
1.414  6.787853
1.413  6.665424
1.412  6.755522
1.411  6.661770
1.410  6.729709
1.409  6.592021
1.408  6.791091
1.407  6.758594
1.406  6.735792
1.405  6.651531
1.404  6.758639
1.403  6.687098
1.402  6.823946
1.401  6.790514
1.400  6.810172
1.399  6.804204
1.398  6.845708
1.397  6.747499
1.396  6.872855
1.395  6.772669
1.394  6.864948
1.393  6.748480
1.392  6.933131
1.391  6.802103
1.390  6.999110
1.389  6.914574
1.388  6.988793
1.387  6.825057
1.386  6.966348
1.385  6.921744
1.384  7.044741
1.383  6.846138
1.382  7.137736
1.381  6.951725
1.380  7.021860
1.379  6.925046
1.378  7.012874
1.377  6.875518
1.376  7.063215
1.375  6.920766
1.374  7.061497
1.373  6.900286
1.372  7.044897
1.371  6.887041
1.370  7.009411
1.369  6.818497
1.368  7.081933
1.367  6.908975
1.366  7.078981
1.365  6.954883
1.364  7.054672
1.363  6.965779
1.362  7.035714
1.361  6.856393
1.360  7.012195
1.359  6.904906
1.358  7.200839
1.357  6.979163
1.356  7.110526
1.355  6.775951
1.354  7.034188
1.353  6.887455
1.352  7.033124
1.351  6.966487
1.350  7.118651
1.349  6.977379
1.348  7.070466
1.347  6.893225
1.346  7.008004
1.345  6.904164
1.344  7.039637
1.343  6.936964
1.342  7.025632
1.341  6.925143
1.340  7.039606
1.339  6.919906
1.338  7.008066
1.337  6.856230
1.336  7.106569
1.335  6.885119
1.334  7.115321
1.333  6.899051
1.332  7.042061
1.331  6.926045
1.330  7.065659
1.329  7.016577
1.328  7.039459
1.327  6.975065
1.326  7.086283
1.325  6.944011
1.324  7.090856
1.323  6.981473
1.322  7.010080
1.321  6.895087
1.320  7.029246
1.319  6.939181
1.318  7.021436
1.317  7.044100
1.316  7.044679
1.315  6.850912
1.314  7.006181
1.313  7.033716
1.312  7.121904
1.311  6.926314
1.310  7.065701
1.309  6.967622
1.308  7.016848
1.307  6.942839
1.306  7.068883
1.305  6.956003
1.304  7.041482
1.303  6.989042
1.302  6.994949
1.301  6.979572
1.300  7.082831
1.299  7.040531
1.298  7.056578
1.297  6.973747
1.296  7.068098
1.295  7.026013
1.294  7.046882
1.293  6.993719
1.292  7.087884
1.291  7.003245
1.290  7.088057
1.289  6.984482
1.288  7.075621
1.287  7.025087
1.286  7.036087
1.285  7.051396
1.284  7.074623
1.283  6.957502
1.282  7.052451
1.281  6.959891
1.280  7.004744
1.279  7.038324
1.278  7.077102
1.277  7.034185
1.276  7.062109
1.275  6.963810
1.274  7.072538
1.273  7.039676
1.272  7.062581
1.271  7.031392
1.270  7.036537
1.269  7.054150
1.268  7.047034
1.267  6.952577
1.266  7.044539
1.265  6.991381
1.264  7.037845
1.263  7.066891
1.262  7.078741
1.261  7.078513
1.260  7.138104
1.259  7.112556
1.258  7.081111
1.257  7.027315
1.256  7.103367
1.255  7.075323
1.254  7.115938
1.253  7.032769
1.252  7.093300
1.251  7.045663
1.250  7.066471
1.249  7.026940
1.248  7.063414
1.247  7.055653
1.246  7.101510
1.245  7.121493
1.244  7.093296
1.243  7.046779
1.242  7.156751
1.241  7.128066
1.240  7.136730
1.239  7.092508
1.238  7.094918
1.237  7.120177
1.236  7.154365
1.235  7.068681
1.234  7.087585
1.233  7.092284
1.232  7.062568
1.231  7.061754
1.230  7.075166
1.229  7.089832
1.228  7.134967
1.227  7.074381
1.226  7.092816
1.225  7.165775
1.224  7.139238
1.223  7.055370
1.222  7.125785
1.221  7.157896
1.220  7.173995
1.219  7.161647
1.218  7.124361
1.217  7.078607
1.216  7.174416
1.215  7.173452
1.214  7.060616
1.213  7.110248
1.212  7.156873
1.211  7.119383
1.210  7.082958
1.209  7.129666
1.208  7.180887
1.207  7.209473
1.206  7.163874
1.205  7.137078
1.204  7.158785
1.203  7.175688
1.202  7.163536
1.201  7.161778
1.200  7.136853
1.199  7.194208
1.198  7.187324
1.197  7.195086
1.196  7.197357
1.195  7.205516
1.194  7.155340
1.193  7.191169
1.192  7.198576
1.191  7.172984
1.190  7.157150
1.189  7.223647
1.188  7.062519
1.187  7.188074
1.186  7.262454
1.185  7.241229
1.184  7.207456
1.183  7.200330
1.182  7.169344
1.181  7.233571
1.180  7.197357
1.179  7.235023
1.178  7.239528
1.177  7.194137
1.176  7.192937
1.175  7.269161
1.174  7.192163
1.173  7.253135
1.172  7.231181
1.171  7.302628
1.170  7.199332
1.169  7.261203
1.168  7.232783
1.167  7.268197
1.166  7.197364
1.165  7.249293
1.164  7.223229
1.163  7.271162
1.162  7.272892
1.161  7.381467
1.160  7.274620
1.159  7.314663
1.158  7.221063
1.157  7.325865
1.156  7.293679
1.155  7.353428
1.154  7.255399
1.153  7.315400
1.152  7.314591
1.151  7.353634
1.150  7.270993
1.149  7.323499
1.148  7.328052
1.147  7.399703
1.146  7.293813
1.145  7.328508
1.144  7.250939
1.143  7.336631
1.142  7.293597
1.141  7.391894
1.140  7.233249
1.139  7.352053
1.138  7.285917
1.137  7.338027
1.136  7.285980
1.135  7.378924
1.134  7.332655
1.133  7.376723
1.132  7.303239
1.131  7.380295
1.130  7.366457
1.129  7.416499
1.128  7.336072
1.127  7.452896
1.126  7.413188
1.125  7.400455
1.124  7.383430
1.123  7.527748
1.122  7.387064
1.121  7.464100
1.120  7.350466
1.119  7.472341
1.118  7.426315
1.117  7.417787
1.116  7.432345
1.115  7.532878
1.114  7.382942
1.113  7.459187
1.112  7.361160
1.111  7.561996
1.110  7.538064
1.109  7.529833
1.108  7.406561
1.107  7.513386
1.106  7.449226
1.105  7.519750
1.104  7.492660
1.103  7.541177
1.102  7.389826
1.101  7.574013
1.100  7.446919
1.099  7.475814
1.098  7.450068
1.097  7.535199
1.096  7.381235
1.095  7.529622
1.094  7.476485
1.093  7.600044
1.092  7.500439
1.091  7.550179
1.090  7.535806
1.089  7.557224
1.088  7.504733
1.087  7.574022
1.086  7.486964
1.085  7.711887
1.084  7.529008
1.083  7.574722
1.082  7.530152
1.081  7.813671
1.080  7.507685
1.079  7.599500
1.078  7.619932
1.077  7.693539
1.076  7.584585
1.075  7.723626
1.074  7.520949
1.073  7.645779
1.072  7.485991
1.071  7.796951
1.070  7.415953
1.069  7.769492
1.068  7.560144
1.067  7.820156
1.066  7.693147
1.065  7.697178
1.064  7.671229
1.063  7.822763
1.062  7.591283
1.061  7.708662
1.060  7.633183
1.059  7.801801
1.058  7.659748
1.057  7.724157
1.056  7.770046
1.055  7.636975
1.054  7.699488
1.053  7.779641
1.052  7.671246
1.051  7.649972
1.050  7.723552
1.049  7.834204
1.048  7.612360
1.047  7.840178
1.046  7.673986
1.045  7.822232
1.044  7.798638
1.043  7.770433
1.042  7.810367
1.041  7.836509
1.040  7.756956
1.039  7.845639
1.038  7.807949
1.037  7.851405
1.036  7.799523
1.035  7.842628
1.034  7.783659
1.033  7.867836
1.032  7.796485
1.031  7.820087
1.030  7.779488
1.029  7.888079
1.028  7.807021
1.027  7.849620
1.026  7.742012
1.025  7.855110
1.024  7.921545
1.023  7.891785
1.022  7.837319
1.021  7.985985
1.020  7.832051
1.019  7.909346
1.018  7.873405
1.017  7.937207
1.016  7.860826
1.015  7.858426
1.014  7.886442
1.013  7.925861
1.012  7.805343
1.011  7.984790
1.010  7.871936
1.009  7.979164
1.008  7.904330
1.007  7.914478
1.006  7.862910
1.005  8.015874
1.004  7.917439
1.003  7.930419
1.002  7.890636
1.001  8.031640
1.000  7.900876
0.999  7.973735
0.998  7.872154
0.997  7.981861
0.996  7.959518
0.995  7.999123
0.994  7.934168
0.993  8.005301
0.992  7.903566
0.991  7.992404
0.990  7.939072
0.989  7.986218
0.988  7.838625
0.987  7.951800
0.986  7.945804
0.985  7.962209
0.984  7.971793
0.983  8.038576
0.982  8.014801
0.981  8.012477
0.980  7.963766
0.979  7.997015
0.978  7.972119
0.977  8.039412
0.976  7.998033
0.975  8.017391
0.974  7.935880
0.973  8.009180
0.972  8.004536
0.971  8.023844
0.970  8.007505
0.969  8.043300
0.968  8.011400
0.967  8.059939
0.966  7.975686
0.965  7.999421
0.964  8.021952
0.963  8.063414
0.962  8.040768
0.961  7.990881
0.960  7.982648
0.959  7.957081
0.958  7.943636
0.957  7.997230
0.956  7.944436
0.955  8.005610
0.954  8.001092
0.953  7.966545
0.952  7.923925
0.951  7.966300
0.950  7.986330
0.949  7.950142
0.948  7.917731
0.947  7.946210
0.946  7.926635
0.945  7.921527
0.944  7.913327
0.943  7.951685
0.942  7.979125
0.941  7.963387
0.940  7.909620
0.939  7.892270
0.938  7.833769
0.937  7.833746
0.936  7.864056
0.935  7.913897
0.934  7.940055
0.933  7.894817
0.932  7.850110
0.931  7.862907
0.930  7.870462
0.929  7.887831
0.928  7.879443
0.927  7.834880
0.926  7.856826
0.925  7.865820
0.924  7.866613
0.923  7.839211
0.922  7.824928
0.921  7.817321
0.920  7.805103
0.919  7.811135
0.918  7.756181
0.917  7.758365
0.916  7.753695
0.915  7.769973
0.914  7.830684
0.913  7.803193
0.912  7.775355
0.911  7.741199
0.910  7.764417
0.909  7.742576
0.908  7.748146
0.907  7.708465
0.906  7.697722
0.905  7.656540
0.904  7.682498
0.903  7.601641
0.902  7.714008
0.901  7.707091
0.900  7.693230
0.899  7.612501
0.898  7.704186
0.897  7.666540
0.896  7.738098
0.895  7.658487
0.894  7.655915
0.893  7.643289
0.892  7.642999
0.891  7.641769
0.890  7.705107
0.889  7.645837
0.888  7.649208
0.887  7.601993
0.886  7.619115
0.885  7.565405
0.884  7.605937
0.883  7.563717
0.882  7.611957
0.881  7.604777
0.880  7.668977
0.879  7.556612
0.878  7.563354
0.877  7.566207
0.876  7.606174
0.875  7.582540
0.874  7.618387
0.873  7.550794
0.872  7.621472
0.871  7.579582
0.870  7.599144
0.869  7.489300
0.868  7.581871
0.867  7.519776
0.866  7.619080
0.865  7.569499
0.864  7.599667
0.863  7.534451
0.862  7.606446
0.861  7.607753
0.860  8.027841
0.859  8.018189
0.858  7.983852
0.857  7.949630
0.856  7.960393
0.855  7.949896
0.854  7.960111
0.853  7.961729
0.852  7.958453
0.851  7.965865
0.850  7.966291
0.849  7.953140
0.848  7.958714
0.847  7.956741
0.846  7.953323
0.845  7.936352
0.844  7.941707
0.843  7.917308
0.842  7.927317
0.841  7.932064
0.840  7.936225
0.839  7.904040
0.838  7.903639
0.837  7.890171
0.836  7.885059
0.835  7.880307
0.834  7.867386
0.833  7.861540
0.832  7.840769
0.831  7.840563
0.830  7.837836
0.829  7.829766
0.828  7.814572
0.827  7.819164
0.826  7.823157
0.825  7.808695
0.824  7.795181
0.823  7.790200
0.822  7.791163
0.821  7.768348
0.820  7.772823
0.819  7.756913
0.818  7.758708
0.817  7.748645
0.816  7.730214
0.815  7.724783
0.814  7.735877
0.813  7.722989
0.812  7.708835
0.811  7.698994
0.810  7.690775
0.809  7.683905
0.808  7.669748
0.807  7.667647
0.806  7.665560
0.805  7.651287
0.804  7.660965
0.803  7.637703
0.802  7.632927
0.801  7.630130
0.800  7.626832
0.799  7.616151
0.798  7.604890
0.797  7.588837
0.796  7.572670
0.795  7.575179
0.794  7.565292
0.793  7.553239
0.792  7.543427
0.791  7.540009
0.790  7.516549
0.789  7.522419
0.788  7.513889
0.787  7.510613
0.786  7.491502
0.785  7.484603
0.784  7.480505
0.783  7.470473
0.782  7.455641
0.781  7.459073
0.780  7.437879
0.779  7.429829
0.778  7.414507
0.777  7.408315
0.776  7.407213
0.775  7.386974
0.774  7.384433
0.773  7.373573
0.772  7.364925
0.771  7.350224
0.770  7.349629
0.769  7.336517
0.768  7.325955
0.767  7.311861
0.766  7.303563
0.765  7.296087
0.764  7.286011
0.763  7.279840
0.762  7.266324
0.761  7.264022
0.760  7.259788
0.759  7.256319
0.758  7.236171
0.757  7.230497
0.756  7.213463
0.755  7.214377
0.754  7.200913
0.753  7.191621
0.752  7.185423
0.751  7.182075
0.750  7.167922
0.749  7.158008
0.748  7.156502
0.747  7.147681
0.746  7.136946
0.745  7.127159
0.744  7.113626
0.743  7.114701
0.742  7.100385
0.741  7.098757
0.740  7.088513
0.739  7.082113
0.738  7.069967
0.737  7.058396
0.736  7.059369
0.735  7.046259
0.734  7.041071
0.733  7.034298
0.732  7.024248
0.731  7.017461
0.730  7.013892
0.729  7.005226
0.728  7.001441
0.727  6.992912
0.726  6.986298
0.725  6.973298
0.724  6.972876
0.723  6.965393
0.722  6.955170
0.721  6.952408
0.720  6.945283
0.719  6.942868
0.718  6.936352
0.717  6.928173
0.716  6.920959
0.715  6.918564
0.714  6.914141
0.713  6.906199
0.712  6.900940
0.711  6.898005
0.710  6.890063
0.709  6.884765
0.708  6.881278
0.707  6.881257
0.706  6.878240
0.705  6.870592
0.704  6.862875
0.703  6.858363
0.702  6.853410
0.701  6.850420
0.700  6.844554
0.699  6.838191
0.698  6.837663
0.697  6.833348
0.696  6.827092
0.695  6.821774
0.694  6.822804
0.693  6.820321
0.692  6.812679
0.691  6.809498
0.690  6.804357
0.689  6.805040
0.688  6.803113
0.687  6.800691
0.686  6.800042
0.685  6.794648
0.684  6.788375
0.683  6.789131
0.682  6.785827
0.681  6.780841
0.680  6.778628
0.679  6.777595
0.678  6.776885
0.677  6.774061
0.676  6.772241
0.675  6.767273
0.674  6.765759
0.673  6.761583
0.672  6.761692
0.671  6.758054
0.670  6.757452
0.669  6.758336
0.668  6.754353
0.667  6.751357
0.666  6.746936
0.665  6.747666
0.664  6.745990
0.663  6.745326
0.662  6.744664
0.661  6.743480
0.660  6.739421
0.659  6.737259
0.658  6.737825
0.657  6.737792
0.656  6.735402
0.655  6.732826
0.654  6.732140
0.653  6.732508
0.652  6.732637
0.651  6.733799
0.650  6.731852
0.649  6.728479
0.648  6.727834
0.647  6.725334
0.646  6.725675
0.645  6.723545
0.644  6.721106
0.643  6.722136
0.642  6.721242
0.641  6.718952
0.640  6.719360
0.639  6.719069
0.638  6.716745
0.637  6.714942
0.636  6.714416
0.635  6.714406
0.634  6.714771
0.633  6.713553
0.632  6.712892
0.631  6.711874
0.630  6.712526
0.629  6.711740
0.628  6.708133
0.627  6.707202
0.626  6.707848
0.625  6.708255
0.624  6.708455
0.623  6.708081
0.622  6.708697
0.621  6.707489
0.620  6.706083
0.619  6.704719
0.618  6.703168
0.617  6.703447
0.616  6.704021
0.615  6.703705
0.614  6.704420
0.613  6.704492
0.612  6.702031
0.611  6.701551
0.610  6.701739
0.609  6.702113
0.608  6.703325
0.607  6.702111
0.606  6.700662
0.605  6.700530
0.604  6.702367
0.603  6.702857
0.602  6.700603
0.601  6.698794
0.600  6.699110
0.599  6.701346
0.598  6.702421
0.597  6.705331
0.596  6.705408
0.595  6.704897
0.594  6.706361
0.593  6.704473
0.592  6.702347
0.591  6.702166
0.590  6.704324
0.589  6.703068
0.588  6.703051
0.587  6.703376
0.586  6.701290
0.585  6.701921
0.584  6.703674
0.583  6.702868
0.582  6.701309
0.581  6.699662
0.580  6.699870
0.579  6.699861
0.578  6.697921
0.577  6.695583
0.576  6.696286
0.575  6.696721
0.574  6.692264
0.573  6.691315
0.572  6.690950
0.571  6.689148
0.570  6.688187
0.569  6.687141
0.568  6.682968
0.567  6.681012
0.566  6.677952
0.565  6.674635
0.564  6.670820
0.563  6.666589
0.562  6.663340
0.561  6.687544
0.560  6.698027
0.559  6.694148
0.558  6.691257
0.557  6.691589
0.556  6.687906
0.555  6.688246
0.554  6.684879
0.553  6.682096
0.552  6.679569
0.551  6.676560
0.550  6.674650
0.549  6.670444
0.548  6.668277
0.547  6.663120
0.546  6.660167
0.545  6.656870
0.544  6.653504
0.543  6.651251
0.542  6.645784
0.541  6.641081
0.540  6.639282
0.539  6.636125
0.538  6.624957
0.537  6.621823
0.536  6.618473
0.535  6.612868
0.534  6.607032
0.533  6.600274
0.532  6.593895
0.531  6.588336
0.530  6.582525
0.529  6.572118
0.528  6.566829
0.527  6.561066
0.526  6.554969
0.525  6.549153
0.524  6.542653
0.523  6.533462
0.522  6.524288
0.521  6.517826
0.520  6.514761
0.519  6.506774
0.518  6.498105
0.517  6.494052
0.516  6.486421
0.515  6.481795
0.514  6.475683
0.513  6.469711
0.512  6.463848
0.511  6.459913
0.510  6.458610
0.509  6.452314
0.508  6.451572
0.507  6.448556
0.506  6.446133
0.505  6.439600
0.504  6.439503
0.503  6.440027
0.502  6.437784
0.501  6.431477
0.500  6.434560
0.499  6.432411
0.498  6.431554
0.497  6.429291
0.496  6.432044
0.495  6.436365
0.494  6.437609
0.493  6.438059
0.492  6.439361
0.491  6.444667
0.490  6.446865
0.489  6.443329
0.488  6.449728
0.487  6.454621
0.486  6.455562
0.485  6.459954
0.484  6.464329
0.483  6.463374
0.482  6.436508
0.481  6.413293
0.480  6.376822
0.479  6.346547
0.478  6.321077
0.477  6.305740
0.476  6.297835
0.475  6.290648
0.474  6.284829
0.473  6.281042
0.472  6.272933
0.471  6.267164
0.470  6.263761
0.469  6.257690
0.468  6.249594
0.467  6.246060
0.466  6.240637
0.465  6.236719
0.464  6.233673
0.463  6.232967
0.462  6.233046
0.461  6.231930
0.460  6.226700
0.459  6.225461
0.458  6.227570
0.457  6.227085
0.456  6.225160
0.455  6.222868
0.454  6.221822
0.453  6.222207
0.452  6.223297
0.451  6.218426
0.450  6.214139
0.449  6.212554
0.448  6.208249
0.447  6.210958
0.446  6.216315
0.445  6.215957
0.444  6.210788
0.443  6.199188
0.442  6.183723
0.441  6.170602
0.440  6.159984
0.439  6.147879
0.438  6.136328
0.437  6.123973
0.436  6.112170
0.435  6.098094
0.434  6.087704
0.433  6.077370
0.432  6.060308
0.431  6.055287
0.430  6.044519
0.429  6.031073
0.428  6.019721
0.427  6.010543
0.426  6.001613
0.425  5.988989
0.424  5.977905
0.423  5.969348
0.422  5.965323
0.421  5.959660
0.420  5.943849
0.419  5.939627
0.418  5.935244
0.417  5.927509
0.416  5.919234
0.415  5.921684
0.414  5.912548
0.413  5.906757
0.412  5.903728
0.411  5.902225
0.410  5.896080
0.409  5.887358
0.408  5.882276
0.407  5.878171
0.406  5.869835
0.405  5.867255
0.404  5.863398
0.403  5.858505
0.402  5.849779
0.401  5.844466
0.400  5.838933
