Name: Limestone Breccia
Type: Rock
Class: Sedimentary
Subclass:  Breccia 
Particle Size: Solid surface
Sample No.: Ward47.txt
Owner: JPL
Wavelength range:  VNIR SWIR IR
Origin: Ward's Collection of American Rocks.  Sample locality - Two-Mile Canyon, near Boulder, Boulder County, Colorado.
Collected by:  Ward's Natural Science
Description: A pale reddish-brown rock composed of angular fragments of
limestone and sandy shale with a calcareous cement.
Geologic age - Probably Permian.



Measurement: Hemispherical reflectance
First Column: X
Second Column: Y
X Units: Wavelength (micrometers)
Y Units: Reflectance (percent)
First X Value: 2.500
Last X Value: 0.400
Number of X Values: 2101
Additional information: None

2.500  18.450958
2.499  18.258321
2.498  18.582215
2.497  18.628928
2.496  18.283470
2.495  18.841067
2.494  18.362711
2.493  19.006265
2.492  18.771674
2.491  18.949434
2.490  18.821229
2.489  19.011235
2.488  18.959650
2.487  19.220906
2.486  19.138037
2.485  19.438600
2.484  19.387420
2.483  19.732057
2.482  19.649731
2.481  19.708506
2.480  19.827566
2.479  20.299837
2.478  20.120379
2.477  20.596723
2.476  20.488211
2.475  20.766157
2.474  20.978965
2.473  21.135255
2.472  21.247944
2.471  21.583106
2.470  21.643203
2.469  21.846551
2.468  22.019068
2.467  22.233996
2.466  22.309998
2.465  22.597472
2.464  22.687106
2.463  22.883823
2.462  23.020307
2.461  23.359104
2.460  23.444584
2.459  23.702088
2.458  23.717280
2.457  24.079306
2.456  24.071362
2.455  24.497811
2.454  24.416080
2.453  24.673284
2.452  24.727870
2.451  24.931907
2.450  24.966316
2.449  25.165749
2.448  25.306797
2.447  25.474944
2.446  25.643611
2.445  25.857344
2.444  25.848911
2.443  26.069715
2.442  26.215210
2.441  26.402805
2.440  26.491053
2.439  26.686963
2.438  26.718961
2.437  26.948586
2.436  27.129413
2.435  27.305002
2.434  27.498995
2.433  27.485891
2.432  27.626685
2.431  27.868121
2.430  27.995183
2.429  28.114628
2.428  28.217041
2.427  28.414754
2.426  28.502989
2.425  28.717471
2.424  28.713008
2.423  28.879013
2.422  28.977353
2.421  29.178143
2.420  29.278554
2.419  29.390930
2.418  29.487675
2.417  29.658900
2.416  29.625699
2.415  29.877934
2.414  29.921827
2.413  30.034343
2.412  30.024176
2.411  30.071689
2.410  30.071694
2.409  30.180473
2.408  30.177328
2.407  30.315145
2.406  30.204874
2.405  30.341490
2.404  30.380419
2.403  30.351058
2.402  30.328770
2.401  30.332896
2.400  30.250821
2.399  30.275139
2.398  30.257894
2.397  30.299512
2.396  30.279263
2.395  30.332369
2.394  30.315352
2.393  30.254022
2.392  30.231410
2.391  30.194244
2.390  30.199687
2.389  30.201782
2.388  30.113904
2.387  30.098639
2.386  30.069406
2.385  30.045748
2.384  30.008725
2.383  30.046778
2.382  29.953428
2.381  29.869521
2.380  29.815956
2.379  29.781013
2.378  29.731443
2.377  29.728965
2.376  29.652724
2.375  29.548159
2.374  29.481469
2.373  29.444485
2.372  29.330694
2.371  29.203721
2.370  29.092782
2.369  28.969719
2.368  28.827468
2.367  28.555523
2.366  28.304459
2.365  28.186268
2.364  27.989858
2.363  27.719086
2.362  27.485171
2.361  27.269210
2.360  26.908604
2.359  26.610815
2.358  26.377461
2.357  26.097242
2.356  25.775637
2.355  25.506124
2.354  25.214429
2.353  24.884211
2.352  24.621869
2.351  24.344738
2.350  24.078088
2.349  23.812425
2.348  23.620379
2.347  23.436011
2.346  23.223245
2.345  23.045777
2.344  22.902764
2.343  22.776660
2.342  22.701751
2.341  22.629182
2.340  22.553667
2.339  22.477686
2.338  22.478148
2.337  22.442036
2.336  22.483748
2.335  22.517071
2.334  22.504904
2.333  22.572235
2.332  22.693279
2.331  22.764032
2.330  22.872842
2.329  22.935335
2.328  23.075769
2.327  23.231145
2.326  23.348362
2.325  23.436422
2.324  23.598348
2.323  23.780590
2.322  23.999117
2.321  24.029520
2.320  24.195482
2.319  24.286343
2.318  24.455532
2.317  24.540100
2.316  24.704726
2.315  24.825483
2.314  25.014618
2.313  25.091414
2.312  25.205908
2.311  25.331238
2.310  25.523157
2.309  25.561003
2.308  25.652504
2.307  25.691564
2.306  25.771576
2.305  25.832472
2.304  25.976141
2.303  26.017647
2.302  26.161412
2.301  26.258715
2.300  26.380254
2.299  26.384837
2.298  26.542531
2.297  26.642809
2.296  26.763680
2.295  26.911366
2.294  26.999653
2.293  27.103954
2.292  27.206806
2.291  27.281452
2.290  27.502217
2.289  27.615343
2.288  27.762770
2.287  27.789255
2.286  28.003638
2.285  28.081796
2.284  28.315557
2.283  28.446591
2.282  28.626806
2.281  28.769086
2.280  28.983042
2.279  29.146326
2.278  29.431840
2.277  29.458217
2.276  29.703562
2.275  29.834461
2.274  30.099949
2.273  30.159628
2.272  30.477052
2.271  30.577683
2.270  30.682952
2.269  30.878839
2.268  31.166150
2.267  31.257634
2.266  31.422365
2.265  31.541980
2.264  31.659911
2.263  31.764868
2.262  31.974396
2.261  32.057665
2.260  32.256860
2.259  32.312055
2.258  32.457073
2.257  32.547547
2.256  32.719244
2.255  32.752920
2.254  32.892725
2.253  32.907649
2.252  33.134708
2.251  33.162401
2.250  33.328313
2.249  33.315170
2.248  33.423390
2.247  33.501865
2.246  33.727136
2.245  33.680547
2.244  33.836123
2.243  33.813899
2.242  33.980574
2.241  33.993030
2.240  34.135439
2.239  34.134511
2.238  34.256771
2.237  34.329247
2.236  34.444070
2.235  34.414007
2.234  34.573298
2.233  34.513055
2.232  34.671728
2.231  34.648450
2.230  34.727181
2.229  34.717442
2.228  34.820267
2.227  34.690085
2.226  34.733402
2.225  34.663453
2.224  34.700512
2.223  34.476268
2.222  34.342003
2.221  34.188683
2.220  34.094960
2.219  33.752672
2.218  33.527638
2.217  33.122230
2.216  32.873733
2.215  32.492492
2.214  32.245828
2.213  31.812466
2.212  31.636740
2.211  31.222190
2.210  31.250337
2.209  30.932536
2.208  30.953060
2.207  30.756152
2.206  30.947194
2.205  31.021717
2.204  31.167172
2.203  31.396088
2.202  31.711536
2.201  31.845994
2.200  32.173084
2.199  32.315803
2.198  32.565655
2.197  32.701522
2.196  32.968363
2.195  33.018627
2.194  33.209253
2.193  33.322966
2.192  33.467645
2.191  33.518087
2.190  33.722250
2.189  33.711490
2.188  33.934545
2.187  33.926019
2.186  34.126486
2.185  34.052295
2.184  34.195899
2.183  34.236435
2.182  34.399648
2.181  34.376685
2.180  34.389298
2.179  34.338145
2.178  34.421452
2.177  34.391031
2.176  34.419116
2.175  34.261169
2.174  34.313884
2.173  34.175158
2.172  34.224474
2.171  34.126744
2.170  34.108668
2.169  33.917748
2.168  33.986577
2.167  33.848934
2.166  33.882284
2.165  33.806076
2.164  33.780733
2.163  33.663404
2.162  33.826843
2.161  33.781312
2.160  33.859004
2.159  33.849773
2.158  34.001589
2.157  34.003313
2.156  34.170395
2.155  34.282113
2.154  34.460854
2.153  34.577520
2.152  34.731925
2.151  34.914763
2.150  35.122970
2.149  35.278239
2.148  35.600125
2.147  35.734677
2.146  36.038629
2.145  36.085217
2.144  36.399964
2.143  36.540674
2.142  36.825385
2.141  36.974366
2.140  37.169010
2.139  37.287126
2.138  37.449549
2.137  37.566000
2.136  37.659322
2.135  37.755446
2.134  37.945127
2.133  37.958711
2.132  38.027323
2.131  37.993016
2.130  38.126601
2.129  38.130121
2.128  38.221142
2.127  38.206529
2.126  38.287500
2.125  38.180205
2.124  38.289562
2.123  38.337801
2.122  38.358092
2.121  38.301419
2.120  38.305031
2.119  38.352889
2.118  38.338596
2.117  38.311321
2.116  38.316270
2.115  38.295785
2.114  38.352725
2.113  38.401048
2.112  38.392065
2.111  38.378438
2.110  38.408228
2.109  38.430963
2.108  38.523146
2.107  38.540744
2.106  38.511796
2.105  38.569395
2.104  38.638041
2.103  38.627435
2.102  38.607907
2.101  38.613116
2.100  38.607992
2.099  38.625068
2.098  38.721980
2.097  38.669236
2.096  38.744671
2.095  38.761003
2.094  38.770655
2.093  38.861953
2.092  38.857915
2.091  38.785742
2.090  38.806614
2.089  38.850332
2.088  38.919881
2.087  38.962703
2.086  38.988776
2.085  38.986386
2.084  39.031404
2.083  39.023832
2.082  39.031341
2.081  39.079675
2.080  39.150554
2.079  39.156853
2.078  39.164382
2.077  39.175266
2.076  39.199601
2.075  39.155851
2.074  39.169846
2.073  39.208056
2.072  39.221160
2.071  39.255289
2.070  39.314972
2.069  39.354103
2.068  39.340450
2.067  39.291825
2.066  39.312153
2.065  39.370367
2.064  39.332450
2.063  39.341856
2.062  39.377142
2.061  39.414718
2.060  39.393989
2.059  39.377454
2.058  39.424125
2.057  39.469071
2.056  39.427092
2.055  39.459773
2.054  39.463911
2.053  39.446034
2.052  39.442525
2.051  39.436807
2.050  39.432804
2.049  39.479212
2.048  39.434945
2.047  39.427433
2.046  39.437878
2.045  39.414077
2.044  39.428046
2.043  39.426991
2.042  39.371861
2.041  39.398135
2.040  39.362170
2.039  39.354551
2.038  39.372863
2.037  39.391282
2.036  39.351600
2.035  39.343330
2.034  39.274988
2.033  39.267908
2.032  39.258495
2.031  39.251458
2.030  39.202443
2.029  39.195632
2.028  39.168178
2.027  39.149675
2.026  39.120275
2.025  39.132996
2.024  39.052601
2.023  39.018465
2.022  38.962545
2.021  39.018026
2.020  38.874850
2.019  38.839348
2.018  38.816472
2.017  38.820929
2.016  38.749265
2.015  38.730479
2.014  38.592381
2.013  38.597881
2.012  38.541923
2.011  38.457328
2.010  38.438735
2.009  38.358470
2.008  38.236112
2.007  38.237086
2.006  38.105159
2.005  38.028533
2.004  37.888584
2.003  37.788441
2.002  37.682286
2.001  37.595211
2.000  37.481516
1.999  37.513132
1.998  37.382649
1.997  37.431333
1.996  37.329409
1.995  37.385788
1.994  37.405632
1.993  37.392059
1.992  37.470275
1.991  37.515272
1.990  37.453968
1.989  37.573678
1.988  37.543109
1.987  37.657853
1.986  37.678397
1.985  37.765050
1.984  37.653233
1.983  37.772210
1.982  37.698901
1.981  37.734166
1.980  37.648689
1.979  37.698400
1.978  37.690861
1.977  37.724525
1.976  37.681495
1.975  37.711043
1.974  37.680224
1.973  37.700962
1.972  37.551147
1.971  37.712814
1.970  37.574963
1.969  37.650914
1.968  37.575213
1.967  37.642806
1.966  37.634547
1.965  37.588259
1.964  37.570295
1.963  37.685471
1.962  37.530663
1.961  37.558621
1.960  37.443103
1.959  37.637374
1.958  37.524012
1.957  37.573649
1.956  37.457466
1.955  37.504276
1.954  37.390760
1.953  37.551217
1.952  37.431626
1.951  37.516574
1.950  37.456676
1.949  37.504726
1.948  37.429505
1.947  37.523115
1.946  37.339783
1.945  37.416209
1.944  37.336973
1.943  37.445171
1.942  37.372136
1.941  37.439736
1.940  37.301094
1.939  37.410130
1.938  37.349231
1.937  37.320264
1.936  37.320941
1.935  37.412085
1.934  37.352803
1.933  37.410783
1.932  37.349612
1.931  37.475837
1.930  37.261624
1.929  37.417538
1.928  37.290029
1.927  37.546389
1.926  37.206927
1.925  37.457577
1.924  37.281732
1.923  37.486004
1.922  37.318947
1.921  37.443009
1.920  37.367504
1.919  37.510308
1.918  37.306558
1.917  37.411380
1.916  37.446358
1.915  37.464596
1.914  37.437971
1.913  37.556297
1.912  37.409892
1.911  37.597985
1.910  37.562104
1.909  37.624522
1.908  37.612733
1.907  37.804263
1.906  37.787005
1.905  37.897319
1.904  38.018016
1.903  38.201557
1.902  38.178828
1.901  38.439128
1.900  38.469116
1.899  38.700942
1.898  38.719059
1.897  38.834361
1.896  38.840127
1.895  39.051104
1.894  39.008647
1.893  39.064740
1.892  39.136614
1.891  39.212143
1.890  39.175113
1.889  39.179523
1.888  39.147965
1.887  39.260824
1.886  39.182092
1.885  39.145493
1.884  39.088481
1.883  39.063176
1.882  39.040086
1.881  39.033290
1.880  38.797644
1.879  38.804394
1.878  38.772635
1.877  38.766709
1.876  38.671521
1.875  38.784888
1.874  38.830524
1.873  38.956823
1.872  39.008320
1.871  39.207658
1.870  39.302574
1.869  39.479008
1.868  39.552436
1.867  39.614010
1.866  39.698921
1.865  39.777704
1.864  39.709185
1.863  39.841844
1.862  39.753782
1.861  39.864263
1.860  39.856873
1.859  39.983988
1.858  39.961089
1.857  39.995880
1.856  39.995068
1.855  40.031009
1.854  40.026764
1.853  40.022631
1.852  40.044052
1.851  40.065748
1.850  40.078857
1.849  40.149929
1.848  40.111450
1.847  40.106553
1.846  40.089793
1.845  40.149765
1.844  40.161909
1.843  40.106324
1.842  40.115986
1.841  40.167769
1.840  40.159589
1.839  40.263528
1.838  40.241082
1.837  40.290795
1.836  40.295943
1.835  40.371927
1.834  40.354302
1.833  40.389896
1.832  40.462323
1.831  40.458391
1.830  40.344251
1.829  40.440467
1.828  40.418138
1.827  40.544748
1.826  40.522601
1.825  40.464480
1.824  40.421372
1.823  40.460279
1.822  40.477000
1.821  40.472537
1.820  40.494425
1.819  40.498930
1.818  40.496380
1.817  40.569411
1.816  40.547119
1.815  40.504835
1.814  40.579275
1.813  40.582738
1.812  40.539621
1.811  40.665460
1.810  40.641108
1.809  40.641009
1.808  40.642980
1.807  40.645467
1.806  40.616364
1.805  40.608385
1.804  40.609911
1.803  40.624023
1.802  40.646432
1.801  40.723127
1.800  40.641922
1.799  40.630569
1.798  40.643954
1.797  40.641613
1.796  40.624480
1.795  40.698529
1.794  40.691116
1.793  40.662835
1.792  40.687580
1.791  40.634631
1.790  40.657534
1.789  40.649564
1.788  40.605619
1.787  40.641407
1.786  40.642213
1.785  40.647061
1.784  40.640459
1.783  40.624229
1.782  40.660007
1.781  40.632943
1.780  40.596890
1.779  40.633116
1.778  40.631845
1.777  40.619574
1.776  40.625955
1.775  40.639442
1.774  40.629541
1.773  40.581275
1.772  40.612445
1.771  40.641225
1.770  40.607757
1.769  40.570841
1.768  40.584128
1.767  40.574541
1.766  40.606239
1.765  40.560052
1.764  40.537048
1.763  40.502830
1.762  40.467424
1.761  40.454600
1.760  40.504708
1.759  40.473135
1.758  40.497866
1.757  40.460626
1.756  40.487309
1.755  40.513841
1.754  40.524997
1.753  40.474314
1.752  40.451046
1.751  40.441582
1.750  40.512721
1.749  40.503936
1.748  40.482237
1.747  40.465299
1.746  40.511470
1.745  40.474638
1.744  40.462124
1.743  40.507188
1.742  40.550612
1.741  40.520820
1.740  40.548102
1.739  40.473701
1.738  40.536753
1.737  40.525079
1.736  40.540624
1.735  40.504983
1.734  40.535697
1.733  40.533343
1.732  40.575738
1.731  40.496715
1.730  40.515285
1.729  40.510700
1.728  40.569312
1.727  40.534201
1.726  40.543874
1.725  40.510198
1.724  40.549958
1.723  40.614021
1.722  40.613919
1.721  40.543931
1.720  40.567392
1.719  40.567524
1.718  40.615005
1.717  40.584354
1.716  40.572971
1.715  40.554303
1.714  40.676268
1.713  40.624134
1.712  40.647731
1.711  40.609324
1.710  40.702139
1.709  40.622258
1.708  40.668163
1.707  40.662433
1.706  40.649724
1.705  40.554428
1.704  40.562517
1.703  40.611834
1.702  40.703959
1.701  40.631796
1.700  40.636457
1.699  40.592459
1.698  40.575631
1.697  40.568445
1.696  40.691802
1.695  40.600044
1.694  40.665764
1.693  40.611696
1.692  40.667487
1.691  40.629999
1.690  40.710789
1.689  40.674421
1.688  40.733471
1.687  40.705151
1.686  40.731076
1.685  40.686177
1.684  40.742771
1.683  40.725140
1.682  40.768671
1.681  40.631958
1.680  40.705088
1.679  40.673848
1.678  40.658457
1.677  40.731720
1.676  40.769296
1.675  40.637182
1.674  40.699967
1.673  40.558561
1.672  40.658078
1.671  40.652946
1.670  40.765475
1.669  40.810332
1.668  40.622723
1.667  40.697144
1.666  40.681381
1.665  40.595496
1.664  40.659834
1.663  40.626822
1.662  40.692993
1.661  40.660114
1.660  40.603489
1.659  40.652208
1.658  40.743432
1.657  40.566374
1.656  40.660206
1.655  40.635192
1.654  40.660502
1.653  40.575834
1.652  40.665894
1.651  40.610520
1.650  40.590286
1.649  40.665656
1.648  40.575324
1.647  40.529382
1.646  40.752509
1.645  40.580901
1.644  40.684333
1.643  40.546428
1.642  40.718101
1.641  40.508929
1.640  40.752960
1.639  40.574259
1.638  40.624434
1.637  40.722573
1.636  40.677295
1.635  40.599981
1.634  40.648165
1.633  40.573990
1.632  40.730743
1.631  40.623162
1.630  40.675389
1.629  40.580019
1.628  40.674224
1.627  40.608913
1.626  40.610809
1.625  40.630537
1.624  40.633897
1.623  40.583911
1.622  40.615350
1.621  40.619598
1.620  40.620928
1.619  40.648236
1.618  40.630302
1.617  40.586298
1.616  40.709085
1.615  40.606564
1.614  40.605202
1.613  40.576223
1.612  40.619299
1.611  40.659958
1.610  40.630990
1.609  40.651655
1.608  40.700914
1.607  40.604096
1.606  40.765803
1.605  40.653514
1.604  40.611805
1.603  40.603690
1.602  40.652117
1.601  40.505227
1.600  40.575665
1.599  40.537957
1.598  40.576050
1.597  40.586824
1.596  40.678234
1.595  40.594417
1.594  40.644102
1.593  40.589688
1.592  40.585052
1.591  40.548497
1.590  40.572874
1.589  40.545922
1.588  40.607093
1.587  40.537395
1.586  40.601914
1.585  40.469884
1.584  40.567938
1.583  40.512777
1.582  40.608798
1.581  40.525281
1.580  40.508545
1.579  40.598496
1.578  40.598987
1.577  40.528295
1.576  40.509439
1.575  40.487951
1.574  40.577941
1.573  40.445096
1.572  40.521619
1.571  40.478437
1.570  40.466771
1.569  40.444210
1.568  40.445459
1.567  40.420713
1.566  40.461539
1.565  40.434979
1.564  40.511115
1.563  40.479448
1.562  40.448743
1.561  40.448288
1.560  40.486331
1.559  40.487332
1.558  40.468668
1.557  40.451806
1.556  40.436969
1.555  40.462396
1.554  40.491038
1.553  40.437789
1.552  40.487372
1.551  40.413246
1.550  40.450386
1.549  40.503136
1.548  40.481459
1.547  40.431231
1.546  40.458878
1.545  40.463701
1.544  40.463612
1.543  40.435037
1.542  40.475689
1.541  40.392601
1.540  40.426041
1.539  40.408272
1.538  40.444694
1.537  40.411024
1.536  40.448652
1.535  40.472621
1.534  40.433137
1.533  40.380079
1.532  40.365609
1.531  40.396166
1.530  40.421062
1.529  40.436296
1.528  40.435028
1.527  40.410109
1.526  40.404898
1.525  40.358806
1.524  40.378391
1.523  40.398880
1.522  40.384867
1.521  40.354124
1.520  40.345770
1.519  40.349789
1.518  40.384337
1.517  40.357384
1.516  40.346284
1.515  40.394169
1.514  40.447109
1.513  40.361690
1.512  40.365757
1.511  40.356772
1.510  40.356922
1.509  40.391168
1.508  40.413938
1.507  40.354442
1.506  40.321469
1.505  40.325599
1.504  40.288146
1.503  40.300399
1.502  40.282166
1.501  40.262053
1.500  40.297486
1.499  40.319429
1.498  40.335317
1.497  40.349217
1.496  40.323045
1.495  40.285308
1.494  40.261824
1.493  40.267659
1.492  40.254410
1.491  40.291276
1.490  40.255234
1.489  40.198364
1.488  40.212489
1.487  40.221868
1.486  40.221699
1.485  40.234113
1.484  40.239630
1.483  40.247937
1.482  40.219182
1.481  40.271694
1.480  40.268964
1.479  40.226154
1.478  40.214981
1.477  40.231397
1.476  40.214802
1.475  40.250498
1.474  40.207503
1.473  40.180642
1.472  40.171822
1.471  40.177959
1.470  40.196177
1.469  40.208481
1.468  40.157734
1.467  40.164639
1.466  40.146394
1.465  40.189693
1.464  40.118119
1.463  40.151892
1.462  40.192052
1.461  40.207481
1.460  40.135580
1.459  40.138171
1.458  40.139914
1.457  40.118548
1.456  40.085311
1.455  40.134917
1.454  40.134430
1.453  40.100264
1.452  40.070557
1.451  40.113105
1.450  40.077970
1.449  40.100305
1.448  40.099885
1.447  40.111298
1.446  40.083041
1.445  40.096592
1.444  40.068063
1.443  40.088365
1.442  40.062235
1.441  40.110781
1.440  40.047953
1.439  40.057207
1.438  39.993075
1.437  40.048668
1.436  39.991809
1.435  40.055036
1.434  39.982933
1.433  39.989414
1.432  39.912928
1.431  39.959337
1.430  39.894271
1.429  39.903266
1.428  39.811782
1.427  39.823138
1.426  39.659780
1.425  39.667179
1.424  39.561773
1.423  39.525491
1.422  39.344080
1.421  39.193911
1.420  38.774070
1.419  38.267465
1.418  37.423961
1.417  36.755122
1.416  36.280645
1.415  36.549485
1.414  37.036467
1.413  37.705436
1.412  38.117378
1.411  38.509585
1.410  38.448259
1.409  38.403642
1.408  38.282757
1.407  38.191111
1.406  38.136618
1.405  38.169067
1.404  38.129626
1.403  38.214960
1.402  37.846075
1.401  38.199114
1.400  38.099274
1.399  38.113352
1.398  37.966732
1.397  38.016135
1.396  37.923931
1.395  38.073791
1.394  38.139022
1.393  38.396182
1.392  38.619308
1.391  38.978846
1.390  39.116582
1.389  39.336445
1.388  39.495611
1.387  39.653519
1.386  39.666492
1.385  39.770098
1.384  39.774029
1.383  40.036476
1.382  40.021170
1.381  40.193874
1.380  40.184564
1.379  40.292435
1.378  40.217749
1.377  40.293513
1.376  40.407298
1.375  40.392591
1.374  40.352372
1.373  40.376721
1.372  40.340807
1.371  40.516143
1.370  40.351191
1.369  40.486118
1.368  40.358092
1.367  40.495881
1.366  40.436638
1.365  40.446321
1.364  40.292838
1.363  40.521428
1.362  40.267229
1.361  40.421963
1.360  40.316499
1.359  40.462068
1.358  40.410852
1.357  40.488130
1.356  40.478443
1.355  40.387399
1.354  40.474843
1.353  40.494613
1.352  40.530920
1.351  40.693746
1.350  40.622722
1.349  40.664218
1.348  40.711562
1.347  40.789277
1.346  40.602268
1.345  40.777670
1.344  40.644749
1.343  40.805345
1.342  40.650902
1.341  40.736017
1.340  40.672806
1.339  40.730499
1.338  40.669699
1.337  40.756043
1.336  40.715067
1.335  40.682235
1.334  40.773206
1.333  40.771282
1.332  40.762183
1.331  40.707281
1.330  40.729775
1.329  40.758931
1.328  40.815607
1.327  40.749341
1.326  40.777271
1.325  40.815659
1.324  40.747036
1.323  40.883769
1.322  40.756916
1.321  40.841449
1.320  40.787553
1.319  40.866123
1.318  40.788991
1.317  40.922136
1.316  40.804378
1.315  40.830821
1.314  40.836686
1.313  40.847721
1.312  40.843031
1.311  40.877943
1.310  40.888467
1.309  40.956034
1.308  40.898036
1.307  40.891079
1.306  40.865602
1.305  40.962409
1.304  40.880085
1.303  40.961190
1.302  40.967318
1.301  40.903434
1.300  40.980926
1.299  40.957176
1.298  40.966625
1.297  40.999150
1.296  40.939067
1.295  41.054572
1.294  40.974159
1.293  41.034733
1.292  41.039448
1.291  41.035616
1.290  40.982867
1.289  41.042537
1.288  41.018085
1.287  41.053567
1.286  41.024182
1.285  41.148649
1.284  41.090749
1.283  41.091633
1.282  41.071965
1.281  41.153362
1.280  41.054379
1.279  41.075443
1.278  41.119849
1.277  41.148564
1.276  41.053579
1.275  41.093503
1.274  41.103708
1.273  41.142281
1.272  41.163049
1.271  41.187498
1.270  41.117504
1.269  41.180024
1.268  41.144119
1.267  41.211535
1.266  41.131618
1.265  41.180865
1.264  41.196758
1.263  41.204983
1.262  41.139614
1.261  41.264019
1.260  41.210914
1.259  41.181084
1.258  41.152304
1.257  41.227295
1.256  41.257952
1.255  41.211921
1.254  41.177642
1.253  41.226811
1.252  41.191412
1.251  41.189785
1.250  41.178166
1.249  41.230068
1.248  41.252142
1.247  41.244070
1.246  41.185062
1.245  41.157602
1.244  41.192848
1.243  41.235759
1.242  41.245793
1.241  41.244633
1.240  41.192556
1.239  41.234043
1.238  41.221732
1.237  41.206786
1.236  41.205421
1.235  41.221909
1.234  41.239406
1.233  41.249734
1.232  41.194640
1.231  41.261211
1.230  41.248007
1.229  41.245310
1.228  41.245935
1.227  41.285246
1.226  41.309534
1.225  41.282384
1.224  41.272430
1.223  41.327282
1.222  41.342962
1.221  41.322390
1.220  41.297403
1.219  41.291491
1.218  41.324641
1.217  41.333091
1.216  41.310166
1.215  41.308536
1.214  41.328848
1.213  41.375650
1.212  41.395298
1.211  41.385233
1.210  41.409488
1.209  41.428796
1.208  41.417427
1.207  41.414093
1.206  41.407179
1.205  41.412049
1.204  41.437078
1.203  41.402260
1.202  41.447449
1.201  41.435060
1.200  41.421707
1.199  41.452839
1.198  41.492717
1.197  41.438551
1.196  41.406945
1.195  41.453416
1.194  41.512015
1.193  41.431714
1.192  41.458858
1.191  41.497775
1.190  41.476756
1.189  41.526827
1.188  41.443018
1.187  41.448243
1.186  41.503215
1.185  41.510378
1.184  41.548781
1.183  41.523510
1.182  41.493830
1.181  41.468752
1.180  41.521241
1.179  41.520396
1.178  41.514867
1.177  41.501289
1.176  41.550664
1.175  41.544929
1.174  41.605743
1.173  41.623998
1.172  41.600557
1.171  41.566141
1.170  41.577156
1.169  41.565920
1.168  41.631697
1.167  41.592020
1.166  41.643059
1.165  41.654463
1.164  41.712508
1.163  41.620002
1.162  41.633132
1.161  41.667889
1.160  41.743126
1.159  41.598037
1.158  41.636145
1.157  41.603705
1.156  41.713799
1.155  41.647150
1.154  41.755304
1.153  41.692271
1.152  41.689408
1.151  41.690872
1.150  41.724401
1.149  41.724067
1.148  41.713583
1.147  41.729050
1.146  41.783838
1.145  41.781986
1.144  41.780022
1.143  41.695252
1.142  41.787657
1.141  41.691972
1.140  42.073966
1.139  41.959868
1.138  41.811793
1.137  41.776848
1.136  41.791597
1.135  41.699740
1.134  41.751593
1.133  41.815743
1.132  41.845280
1.131  41.822272
1.130  41.848011
1.129  41.823994
1.128  41.891857
1.127  41.860505
1.126  41.795761
1.125  41.840402
1.124  41.905188
1.123  41.906514
1.122  41.915079
1.121  41.890191
1.120  41.912560
1.119  41.863721
1.118  41.984482
1.117  41.898683
1.116  41.923243
1.115  41.900406
1.114  41.949093
1.113  41.889540
1.112  42.029019
1.111  41.955533
1.110  41.991084
1.109  41.945335
1.108  41.927612
1.107  41.942242
1.106  41.982104
1.105  41.980096
1.104  42.015265
1.103  41.997602
1.102  42.030393
1.101  41.925307
1.100  42.008987
1.099  41.996521
1.098  42.087490
1.097  42.014245
1.096  42.090078
1.095  41.945411
1.094  42.104702
1.093  41.996996
1.092  42.078915
1.091  42.077946
1.090  42.053815
1.089  42.098730
1.088  42.111807
1.087  42.081577
1.086  42.133352
1.085  42.082661
1.084  42.254690
1.083  42.161168
1.082  42.178914
1.081  42.134300
1.080  42.177585
1.079  42.175579
1.078  42.192642
1.077  42.102255
1.076  42.229826
1.075  42.148517
1.074  42.158229
1.073  42.169890
1.072  42.299667
1.071  42.237033
1.070  42.246679
1.069  42.208362
1.068  42.280609
1.067  42.299792
1.066  42.198642
1.065  42.273713
1.064  42.301338
1.063  42.261483
1.062  42.315719
1.061  42.291880
1.060  42.346422
1.059  42.215008
1.058  42.269646
1.057  42.298336
1.056  42.262035
1.055  42.273765
1.054  42.419126
1.053  42.248062
1.052  42.494880
1.051  42.337158
1.050  42.437008
1.049  42.363596
1.048  42.384620
1.047  42.313073
1.046  42.418561
1.045  42.260863
1.044  42.399808
1.043  42.275300
1.042  42.410659
1.041  42.332965
1.040  42.398292
1.039  42.362327
1.038  42.391520
1.037  42.356672
1.036  42.445560
1.035  42.291336
1.034  42.429529
1.033  42.392342
1.032  42.472446
1.031  42.355067
1.030  42.433345
1.029  42.381591
1.028  42.395873
1.027  42.377468
1.026  42.354346
1.025  42.392666
1.024  42.358042
1.023  42.277268
1.022  42.379580
1.021  42.307299
1.020  42.379698
1.019  42.381655
1.018  42.362963
1.017  42.292022
1.016  42.394974
1.015  42.334975
1.014  42.347144
1.013  42.269553
1.012  42.350527
1.011  42.257653
1.010  42.325366
1.009  42.289906
1.008  42.314946
1.007  42.276306
1.006  42.323478
1.005  42.274576
1.004  42.209743
1.003  42.182556
1.002  42.253530
1.001  42.166877
1.000  42.219093
0.999  42.125897
0.998  42.219313
0.997  42.185592
0.996  42.182581
0.995  42.057883
0.994  42.096394
0.993  42.118203
0.992  42.107253
0.991  42.028616
0.990  41.991080
0.989  41.965281
0.988  42.008762
0.987  41.939522
0.986  41.888249
0.985  41.868325
0.984  41.971074
0.983  41.845292
0.982  41.850520
0.981  41.853953
0.980  41.755357
0.979  41.688611
0.978  41.774726
0.977  41.716761
0.976  41.675659
0.975  41.589350
0.974  41.636032
0.973  41.575487
0.972  41.553222
0.971  41.494630
0.970  41.475984
0.969  41.426961
0.968  41.370024
0.967  41.371578
0.966  41.388167
0.965  41.304556
0.964  41.285033
0.963  41.293448
0.962  41.253685
0.961  41.166378
0.960  41.202005
0.959  41.170226
0.958  41.150545
0.957  41.050394
0.956  41.017295
0.955  41.019540
0.954  40.971009
0.953  40.938559
0.952  40.933045
0.951  40.844201
0.950  40.858558
0.949  40.766134
0.948  40.780285
0.947  40.738730
0.946  40.704087
0.945  40.667248
0.944  40.643248
0.943  40.580233
0.942  40.517231
0.941  40.429171
0.940  40.467777
0.939  40.500969
0.938  40.459125
0.937  40.355924
0.936  40.364212
0.935  40.349956
0.934  40.335063
0.933  40.309952
0.932  40.192895
0.931  40.132417
0.930  40.113413
0.929  40.134491
0.928  40.101078
0.927  40.040512
0.926  39.995388
0.925  39.929370
0.924  39.908150
0.923  39.907412
0.922  39.817506
0.921  39.786296
0.920  39.833447
0.919  39.798175
0.918  39.718640
0.917  39.702831
0.916  39.621884
0.915  39.611004
0.914  39.632142
0.913  39.592312
0.912  39.514549
0.911  39.534768
0.910  39.515278
0.909  39.444403
0.908  39.357588
0.907  39.323641
0.906  39.322060
0.905  39.298816
0.904  39.260013
0.903  39.257900
0.902  39.210359
0.901  39.188670
0.900  39.181934
0.899  39.155124
0.898  39.100353
0.897  39.110228
0.896  39.090695
0.895  39.110333
0.894  38.997067
0.893  38.983906
0.892  38.993559
0.891  38.943772
0.890  38.922773
0.889  38.876418
0.888  38.905795
0.887  38.881261
0.886  38.853765
0.885  38.840894
0.884  38.764270
0.883  38.803721
0.882  38.755709
0.881  38.745245
0.880  38.667020
0.879  38.703840
0.878  38.648470
0.877  38.687599
0.876  38.640940
0.875  38.631762
0.874  38.619160
0.873  38.695888
0.872  38.596097
0.871  38.590562
0.870  38.513015
0.869  38.540301
0.868  38.477120
0.867  38.485035
0.866  38.482367
0.865  38.513160
0.864  38.407466
0.863  38.477525
0.862  38.448988
0.861  38.448452
0.860  38.728759
0.859  38.791636
0.858  38.734329
0.857  38.727056
0.856  38.772000
0.855  38.756338
0.854  38.751484
0.853  38.722507
0.852  38.673000
0.851  38.702913
0.850  38.677979
0.849  38.648692
0.848  38.682949
0.847  38.674782
0.846  38.677208
0.845  38.661605
0.844  38.647053
0.843  38.632466
0.842  38.625202
0.841  38.618909
0.840  38.641624
0.839  38.607606
0.838  38.604872
0.837  38.606097
0.836  38.595788
0.835  38.589809
0.834  38.600364
0.833  38.593970
0.832  38.604787
0.831  38.587177
0.830  38.557663
0.829  38.565784
0.828  38.566525
0.827  38.550339
0.826  38.563660
0.825  38.572068
0.824  38.572202
0.823  38.579130
0.822  38.544499
0.821  38.568645
0.820  38.570448
0.819  38.580054
0.818  38.580271
0.817  38.552705
0.816  38.585158
0.815  38.581603
0.814  38.587292
0.813  38.563260
0.812  38.539565
0.811  38.563448
0.810  38.577834
0.809  38.567798
0.808  38.546544
0.807  38.562932
0.806  38.561653
0.805  38.537497
0.804  38.548553
0.803  38.566909
0.802  38.559679
0.801  38.575688
0.800  38.574298
0.799  38.515628
0.798  38.523436
0.797  38.527170
0.796  38.507380
0.795  38.476668
0.794  38.477021
0.793  38.470254
0.792  38.457689
0.791  38.459959
0.790  38.452881
0.789  38.459630
0.788  38.466896
0.787  38.427108
0.786  38.431767
0.785  38.420511
0.784  38.397965
0.783  38.409623
0.782  38.385995
0.781  38.374219
0.780  38.374944
0.779  38.338037
0.778  38.338775
0.777  38.294747
0.776  38.275456
0.775  38.282299
0.774  38.275076
0.773  38.247392
0.772  38.239274
0.771  38.212511
0.770  38.214820
0.769  38.173538
0.768  38.158117
0.767  38.138921
0.766  38.106604
0.765  38.057838
0.764  38.064223
0.763  38.046072
0.762  38.016313
0.761  37.969628
0.760  37.983094
0.759  37.929815
0.758  37.914534
0.757  37.900284
0.756  37.859693
0.755  37.830891
0.754  37.807529
0.753  37.784485
0.752  37.738874
0.751  37.695978
0.750  37.655736
0.749  37.628295
0.748  37.596261
0.747  37.548320
0.746  37.513152
0.745  37.470515
0.744  37.431832
0.743  37.389811
0.742  37.354267
0.741  37.312532
0.740  37.277147
0.739  37.225400
0.738  37.173495
0.737  37.135475
0.736  37.087055
0.735  37.034514
0.734  36.983559
0.733  36.961676
0.732  36.915204
0.731  36.850238
0.730  36.802709
0.729  36.751323
0.728  36.696504
0.727  36.644151
0.726  36.596830
0.725  36.534729
0.724  36.501200
0.723  36.434459
0.722  36.374818
0.721  36.307843
0.720  36.261311
0.719  36.196591
0.718  36.143879
0.717  36.088147
0.716  36.028673
0.715  35.966967
0.714  35.904513
0.713  35.854443
0.712  35.793871
0.711  35.730136
0.710  35.672950
0.709  35.618677
0.708  35.561798
0.707  35.498388
0.706  35.439538
0.705  35.371908
0.704  35.324425
0.703  35.257949
0.702  35.190909
0.701  35.136179
0.700  35.071521
0.699  35.014268
0.698  34.958316
0.697  34.908508
0.696  34.837750
0.695  34.773813
0.694  34.712512
0.693  34.664826
0.692  34.609908
0.691  34.541787
0.690  34.473110
0.689  34.427774
0.688  34.364202
0.687  34.310805
0.686  34.250539
0.685  34.191861
0.684  34.144645
0.683  34.087661
0.682  34.026334
0.681  33.968565
0.680  33.909532
0.679  33.852605
0.678  33.796578
0.677  33.737542
0.676  33.675535
0.675  33.612998
0.674  33.559219
0.673  33.515341
0.672  33.457824
0.671  33.402946
0.670  33.356200
0.669  33.301812
0.668  33.240538
0.667  33.206087
0.666  33.165721
0.665  33.118162
0.664  33.064411
0.663  33.007957
0.662  32.955771
0.661  32.901924
0.660  32.854071
0.659  32.803629
0.658  32.743252
0.657  32.685730
0.656  32.641863
0.655  32.594431
0.654  32.547503
0.653  32.493645
0.652  32.440857
0.651  32.395796
0.650  32.341331
0.649  32.289336
0.648  32.237766
0.647  32.184084
0.646  32.132504
0.645  32.075640
0.644  32.029274
0.643  31.978511
0.642  31.921143
0.641  31.879349
0.640  31.827804
0.639  31.778329
0.638  31.729441
0.637  31.673432
0.636  31.619194
0.635  31.566178
0.634  31.512411
0.633  31.456051
0.632  31.403413
0.631  31.350752
0.630  31.302433
0.629  31.241650
0.628  31.178670
0.627  31.130671
0.626  31.071027
0.625  31.008267
0.624  30.949615
0.623  30.892130
0.622  30.837453
0.621  30.778565
0.620  30.713087
0.619  30.648115
0.618  30.579055
0.617  30.510241
0.616  30.442589
0.615  30.368521
0.614  30.297918
0.613  30.227100
0.612  30.149201
0.611  30.071297
0.610  29.988073
0.609  29.907127
0.608  29.826074
0.607  29.745635
0.606  29.653083
0.605  29.560777
0.604  29.468053
0.603  29.367546
0.602  29.266381
0.601  29.162617
0.600  29.055386
0.599  28.949633
0.598  28.838458
0.597  28.728383
0.596  28.614725
0.595  28.496050
0.594  28.360278
0.593  28.225616
0.592  28.091124
0.591  27.951026
0.590  27.806508
0.589  27.660108
0.588  27.504428
0.587  27.343630
0.586  27.184178
0.585  27.021625
0.584  26.856323
0.583  26.686000
0.582  26.509859
0.581  26.326661
0.580  26.146258
0.579  25.962624
0.578  25.776996
0.577  25.588505
0.576  25.398913
0.575  25.210018
0.574  25.015284
0.573  24.824071
0.572  24.636304
0.571  24.446659
0.570  24.256080
0.569  24.069795
0.568  23.883778
0.567  23.698564
0.566  23.516096
0.565  23.334263
0.564  23.158475
0.563  22.986066
0.562  22.816308
0.561  22.684093
0.560  22.536244
0.559  22.384054
0.558  22.239367
0.557  22.098866
0.556  21.961616
0.555  21.833423
0.554  21.706393
0.553  21.592866
0.552  21.468207
0.551  21.359867
0.550  21.256044
0.549  21.153610
0.548  21.058426
0.547  20.969433
0.546  20.880797
0.545  20.797713
0.544  20.719195
0.543  20.638212
0.542  20.574528
0.541  20.507917
0.540  20.444699
0.539  20.384498
0.538  20.317691
0.537  20.267909
0.536  20.218754
0.535  20.164086
0.534  20.119660
0.533  20.069267
0.532  20.024160
0.531  19.983887
0.530  19.944115
0.529  19.905697
0.528  19.866521
0.527  19.832524
0.526  19.799435
0.525  19.764337
0.524  19.735015
0.523  19.703002
0.522  19.672539
0.521  19.643477
0.520  19.615549
0.519  19.588555
0.518  19.566441
0.517  19.539957
0.516  19.512866
0.515  19.490465
0.514  19.469672
0.513  19.449695
0.512  19.424463
0.511  19.404462
0.510  19.386546
0.509  19.364942
0.508  19.338418
0.507  19.333256
0.506  19.308780
0.505  19.289928
0.504  19.270784
0.503  19.258094
0.502  19.240636
0.501  19.217850
0.500  19.203759
0.499  19.184777
0.498  19.163290
0.497  19.152240
0.496  19.123873
0.495  19.111240
0.494  19.091135
0.493  19.083148
0.492  19.069123
0.491  19.051008
0.490  19.030859
0.489  19.018738
0.488  19.006957
0.487  18.989195
0.486  18.982047
0.485  18.974439
0.484  18.952291
0.483  18.938804
0.482  18.911093
0.481  18.863571
0.480  18.827191
0.479  18.774913
0.478  18.733239
0.477  18.695801
0.476  18.670122
0.475  18.637629
0.474  18.618224
0.473  18.595290
0.472  18.563856
0.471  18.534490
0.470  18.511104
0.469  18.485081
0.468  18.455092
0.467  18.431568
0.466  18.405960
0.465  18.377212
0.464  18.351254
0.463  18.327006
0.462  18.294887
0.461  18.274826
0.460  18.252295
0.459  18.226614
0.458  18.197798
0.457  18.179547
0.456  18.146727
0.455  18.130423
0.454  18.109886
0.453  18.108757
0.452  18.082871
0.451  18.059386
0.450  18.029586
0.449  18.010147
0.448  17.985890
0.447  17.960849
0.446  17.937409
0.445  17.925995
0.444  17.904468
0.443  17.877880
0.442  17.842773
0.441  17.816892
0.440  17.787158
0.439  17.760887
0.438  17.732917
0.437  17.702246
0.436  17.678296
0.435  17.653963
0.434  17.625915
0.433  17.605005
0.432  17.583090
0.431  17.554371
0.430  17.532468
0.429  17.508497
0.428  17.479019
0.427  17.454413
0.426  17.433379
0.425  17.407733
0.424  17.384777
0.423  17.362646
0.422  17.339101
0.421  17.317691
0.420  17.299811
0.419  17.270528
0.418  17.252052
0.417  17.234358
0.416  17.209432
0.415  17.181737
0.414  17.158537
0.413  17.135449
0.412  17.117407
0.411  17.090760
0.410  17.069003
0.409  17.042564
0.408  17.021436
0.407  16.996755
0.406  16.969266
0.405  16.939049
0.404  16.911784
0.403  16.889725
0.402  16.862098
0.401  16.832353
0.400  16.800087
