Name: Cummingtonite (Mg,Fe^2+)_7Si_8O_22(OH)_2
Type: Mineral
Class: Silicates
Subclass: Inosilicates
Particle Size: 125-500um
Sample No.: IN-6A
Owner: JPL
Wavelength range: IR
Origin: USA, South Dakota
Collected by Ward's
Description: 





Measurement: Hemispherical reflectance
First Column: X
Second Column: Y
X Units:  Wavelength (micrometers)
Y Units:  Reflectance (percent)
First X Value: 15.3853
Last X Value: 2.00032
Number of X Values: 2256
Additional information: in06aa.txt
 
15.3853	2.86812
15.3397	2.90984
15.2945	2.91055
15.2495	2.98474
15.2048	3.00393
15.1603	2.77688
15.1161	2.76043
15.0722	2.81922
15.0285	2.94757
14.9851	2.9007
14.9419	2.74067
14.8989	2.76194
14.8563	2.80536
14.8138	2.71646
14.7716	2.68723
14.7296	2.65433
14.6879	2.54641
14.6464	2.60677
14.6052	2.96254
14.5641	3.09683
14.5233	3.09009
14.4828	3.09941
14.4424	2.99275
14.4023	2.84337
14.3624	2.87637
14.3227	2.89049
14.2833	3.03533
14.244	3.01906
14.205	2.84499
14.1662	2.68966
14.1276	2.91234
14.0892	3.0196
14.051	2.66416
14.0131	2.61318
13.9753	2.67823
13.9377	2.54745
13.9004	2.46383
13.8632	2.51253
13.8262	2.74734
13.7895	2.86635
13.7529	2.74473
13.7165	2.72571
13.6803	2.76688
13.6443	2.72387
13.6085	2.85984
13.5729	3.07785
13.5374	3.09709
13.5022	3.10889
13.4671	3.18079
13.4322	3.25925
13.3975	3.34391
13.363	3.48829
13.3286	3.4643
13.2944	3.35936
13.2604	3.44312
13.2266	3.60155
13.193	3.59205
13.1595	3.64435
13.1262	3.64888
13.093	3.78427
13.06	3.89106
13.0272	3.89107
12.9946	3.88114
12.9621	3.9035
12.9298	4.10286
12.8976	4.26289
12.8656	4.20391
12.8337	4.19
12.8021	4.05819
12.7705	3.90614
12.7391	3.70851
12.7079	3.36203
12.6769	3.14411
12.6459	3.23594
12.6152	3.43162
12.5845	3.51143
12.5541	3.60604
12.5238	3.6848
12.4936	3.71043
12.4635	3.66924
12.4337	3.5831
12.4039	3.56161
12.3743	3.65907
12.3448	3.63662
12.3155	3.5201
12.2863	3.42922
12.2573	3.52977
12.2284	3.79022
12.1996	3.81769
12.171	3.8181
12.1425	3.86957
12.1141	3.97769
12.0859	4.14721
12.0578	4.21398
12.0298	4.20267
12.0019	4.24024
11.9742	4.31073
11.9466	4.33335
11.9192	4.35966
11.8918	4.52705
11.8646	4.69998
11.8375	4.72469
11.8106	4.82602
11.7837	4.9674
11.757	5.13843
11.7304	5.35616
11.7039	5.51185
11.6776	5.64424
11.6513	5.77538
11.6252	5.82243
11.5992	5.90639
11.5733	6.10621
11.5475	6.36678
11.5219	6.54378
11.4963	6.61905
11.4709	6.74673
11.4455	6.89336
11.4203	6.89306
11.3952	6.78847
11.3702	6.66678
11.3454	6.60577
11.3206	6.61811
11.2959	6.50941
11.2714	6.44479
11.2469	6.45585
11.2226	6.4549
11.1983	6.56048
11.1742	6.70803
11.1502	6.74729
11.1263	6.82357
11.1024	6.81894
11.0787	6.68207
11.0551	6.6077
11.0316	6.77025
11.0081	6.94897
10.9848	6.96482
10.9616	6.81946
10.9385	6.69122
10.9154	6.65582
10.8925	6.69321
10.8697	6.68039
10.8469	6.57783
10.8243	6.41858
10.8017	6.39804
10.7793	6.61936
10.7569	6.82716
10.7346	6.8979
10.7125	6.95202
10.6904	7.29048
10.6684	7.74677
10.6465	8.01631
10.6247	8.28815
10.6029	8.64244
10.5813	8.98609
10.5597	9.32296
10.5383	9.71532
10.5169	10.227
10.4956	10.6066
10.4744	11.1625
10.4533	11.7502
10.4323	12.1567
10.4113	12.5028
10.3904	12.8302
10.3697	13.0037
10.349	13.0518
10.3284	13.2874
10.3078	13.518
10.2874	13.5529
10.267	13.6262
10.2467	13.5933
10.2265	13.5376
10.2064	13.5876
10.1863	13.693
10.1663	13.8392
10.1464	13.8767
10.1266	14.0878
10.1069	14.49
10.0872	14.8167
10.0676	15.2744
10.0481	15.828
10.0287	16.2929
10.0093	16.8178
9.99005	17.3038
9.97084	17.6603
9.95169	17.8464
9.93263	18.0458
9.91364	18.2841
9.89472	18.4294
9.87587	18.4367
9.8571	18.5261
9.83839	18.641
9.81976	18.6828
9.80119	18.6906
9.78271	18.6486
9.76428	18.6284
9.74592	18.5246
9.72764	18.5306
9.70943	18.6528
9.69128	18.5701
9.6732	18.3914
9.65518	18.2901
9.63724	18.1826
9.61935	18.0343
9.60155	17.8343
9.5838	17.6119
9.56611	17.2712
9.5485	17.0064
9.53094	16.7138
9.51345	16.3067
9.49604	15.9569
9.47867	15.6212
9.46137	15.2379
9.44414	14.9811
9.42697	14.6553
9.40986	14.1823
9.39281	13.8428
9.37583	13.6932
9.35891	13.2916
9.34204	12.7149
9.32524	12.1696
9.3085	11.4835
9.29182	11.0013
9.27519	10.7935
9.25863	10.9626
9.24213	11.5293
9.22568	12.0889
9.2093	12.4001
9.19297	12.7603
9.17669	13.1202
9.16048	13.2155
9.14433	13.3284
9.12823	13.5313
9.11218	13.3907
9.0962	13.0816
9.08027	12.6323
9.06439	12.2345
9.04858	11.7865
9.03281	11.1803
9.0171	10.6232
9.00145	10.1767
8.98585	9.9107
8.9703	9.73239
8.9548	9.54835
8.93937	9.40324
8.92398	9.25772
8.90865	9.17232
8.89337	9.2347
8.87814	9.33123
8.86296	9.44706
8.84784	9.57904
8.83277	9.68811
8.81774	9.75288
8.80277	9.77564
8.78786	9.7013
8.77298	9.71075
8.75816	9.74238
8.7434	9.69111
8.72868	9.48743
8.714	9.33063
8.69938	9.21161
8.68481	8.91386
8.67029	8.43088
8.65581	8.05305
8.64139	7.40831
8.62701	6.81961
8.61268	6.44275
8.5984	6.27787
8.58416	6.21707
8.56997	6.19418
8.55583	6.01344
8.54174	5.73416
8.52769	5.63718
8.51368	5.56607
8.49973	5.55845
8.48582	5.57078
8.47195	5.41899
8.45813	5.29442
8.44436	5.25444
8.43062	5.2681
8.41693	5.37581
8.4033	5.32048
8.3897	5.23544
8.37614	5.07008
8.36264	4.88714
8.34917	4.92847
8.33574	5.00261
8.32236	5.07091
8.30903	5.03514
8.29573	4.83689
8.28248	4.7459
8.26927	4.84628
8.2561	4.90873
8.24298	4.81845
8.2299	4.69671
8.21685	4.73168
8.20385	4.76346
8.19089	4.73157
8.17797	4.59672
8.16509	4.50872
8.15225	4.37104
8.13946	4.11028
8.1267	3.90197
8.11398	3.88925
8.10131	3.80586
8.08867	3.60878
8.07606	3.55092
8.0635	3.43847
8.05099	3.30303
8.0385	3.20284
8.02606	3.01742
8.01366	3.01241
8.00129	3.00756
7.98896	2.93086
7.97667	2.81753
7.96442	2.77814
7.9522	2.73295
7.94002	2.66426
7.92788	2.51008
7.91578	2.36386
7.90371	2.42772
7.89168	2.47975
7.87969	2.42148
7.86773	2.3354
7.85581	2.26507
7.84392	2.24037
7.83207	2.30685
7.82026	2.32329
7.80849	2.28436
7.79674	2.25749
7.78503	2.28646
7.77337	2.28847
7.76173	2.28564
7.75012	2.26726
7.73856	2.28972
7.72703	2.23904
7.71553	2.22039
7.70406	2.27357
7.69263	2.24865
7.68123	2.22587
7.66987	2.22976
7.65855	2.32647
7.64725	2.29876
7.63598	2.22472
7.62475	2.19121
7.61356	2.23515
7.60239	2.25752
7.59126	2.26844
7.58017	2.34919
7.5691	2.32455
7.55806	2.22185
7.54707	2.25061
7.5361	2.287
7.52516	2.27789
7.51425	2.28158
7.50338	2.28831
7.49253	2.28595
7.48172	2.27281
7.47094	2.33279
7.46019	2.43124
7.44947	2.38309
7.43879	2.30627
7.42813	2.30698
7.4175	2.32702
7.4069	2.37103
7.39634	2.33828
7.3858	2.28553
7.37529	2.33039
7.36482	2.45054
7.35437	2.45646
7.34396	2.41331
7.33357	2.42984
7.32321	2.35968
7.31288	2.37579
7.30258	2.46929
7.29231	2.54076
7.28207	2.43264
7.27185	2.37094
7.26167	2.50854
7.25152	2.56906
7.24139	2.55623
7.23129	2.56509
7.22122	2.64808
7.21117	2.67768
7.20116	2.60279
7.19117	2.5972
7.18121	2.69691
7.17128	2.75124
7.16137	2.69994
7.1515	2.67756
7.14164	2.73609
7.13182	2.84733
7.12203	2.81435
7.11225	2.75887
7.10251	2.72259
7.0928	2.70097
7.08311	2.72862
7.07344	2.80489
7.06381	2.86933
7.0542	2.94313
7.04461	3.0091
7.03506	3.02029
7.02552	2.97884
7.01601	2.89133
7.00653	2.88353
6.99708	2.9877
6.98765	3.02649
6.97824	2.99002
6.96886	3.07233
6.95951	3.0596
6.95018	2.95937
6.94087	2.92526
6.9316	2.92364
6.92234	3.02679
6.91311	3.1279
6.90391	3.08251
6.89473	3.02379
6.88557	3.04215
6.87644	3.10667
6.86733	3.2168
6.85824	3.25107
6.84918	3.17174
6.84015	3.12777
6.83114	3.17675
6.82215	3.16587
6.81319	3.13997
6.80424	3.17589
6.79532	3.22344
6.78643	3.26158
6.77756	3.22177
6.76871	3.21309
6.75989	3.24698
6.75109	3.21696
6.74231	3.17154
6.73355	3.17748
6.72482	3.23042
6.71611	3.30799
6.70742	3.32523
6.69875	3.23962
6.69011	3.21606
6.68149	3.24994
6.67289	3.36806
6.66431	3.39057
6.65576	3.32382
6.64722	3.3726
6.63871	3.59215
6.63022	3.54892
6.62175	3.31738
6.61331	3.30082
6.60488	3.38309
6.59648	3.45633
6.5881	3.43257
6.57974	3.37449
6.5714	3.38576
6.56308	3.39646
6.55478	3.39795
6.54651	3.3886
6.53825	3.3963
6.53001	3.43278
6.5218	3.49034
6.51361	3.4586
6.50544	3.40605
6.49729	3.54979
6.48915	3.66381
6.48104	3.59928
6.47295	3.57614
6.46488	3.52192
6.45683	3.57644
6.4488	3.57314
6.44079	3.52777
6.4328	3.56915
6.42482	3.62892
6.41687	3.65077
6.40894	3.63991
6.40103	3.53204
6.39314	3.46669
6.38526	3.44657
6.37741	3.43306
6.36957	3.36902
6.36176	3.2904
6.35396	3.26191
6.34618	3.25122
6.33843	3.24195
6.33069	3.27828
6.32297	3.31714
6.31527	3.24195
6.30758	3.175
6.29992	3.13209
6.29227	3.04131
6.28465	2.98284
6.27704	3.0049
6.26945	3.09175
6.26188	3.13134
6.25432	3.06405
6.24679	2.98473
6.23927	2.94418
6.23177	2.92861
6.22429	2.99107
6.21683	2.98312
6.20938	2.93969
6.20195	2.92582
6.19454	2.93582
6.18715	2.92688
6.17978	2.89468
6.17242	2.91973
6.16508	2.97062
6.15776	2.9674
6.15045	2.89261
6.14317	2.85793
6.1359	2.86074
6.12864	2.90814
6.12141	3.04759
6.11419	3.09474
6.10699	2.96008
6.0998	2.90675
6.09263	2.94293
6.08549	2.98463
6.07835	2.9738
6.07123	2.98831
6.06413	2.9484
6.05705	3.00683
6.04998	3.09901
6.04293	3.02042
6.0359	2.90793
6.02888	2.92063
6.02187	2.95937
6.01489	3.03656
6.00792	3.1065
6.00096	3.10207
5.99403	3.02235
5.98711	3.04333
5.9802	3.0652
5.97331	3.03083
5.96644	3.0407
5.95958	3.01358
5.95274	3.07904
5.94591	3.17116
5.9391	3.18947
5.9323	3.15992
5.92552	3.12298
5.91876	3.10407
5.91201	3.05825
5.90528	3.11213
5.89856	3.27142
5.89186	3.31253
5.88517	3.35503
5.8785	3.33469
5.87184	3.20548
5.8652	3.20532
5.85857	3.20365
5.85196	3.26051
5.84536	3.28072
5.83878	3.19156
5.83221	3.21313
5.82566	3.24667
5.81912	3.22968
5.81259	3.17226
5.80608	3.14936
5.79959	3.18919
5.79311	3.19938
5.78665	3.24363
5.78019	3.22742
5.77376	3.2319
5.76734	3.35747
5.76093	3.2339
5.75453	3.10537
5.74815	3.13406
5.74179	3.15943
5.73543	3.18823
5.7291	3.10627
5.72277	3.10307
5.71646	3.1376
5.71017	3.04784
5.70389	3.00984
5.69762	3.09574
5.69136	3.13277
5.68513	3.11898
5.6789	3.13335
5.67268	3.13571
5.66648	3.06618
5.6603	3.03504
5.65413	3.09144
5.64797	3.14664
5.64182	3.14997
5.63569	3.08509
5.62957	3.0274
5.62347	3.02233
5.61737	3.04777
5.61129	3.07358
5.60522	3.12843
5.59917	3.09431
5.59313	3.05965
5.5871	3.0143
5.58109	2.96876
5.57509	3.00688
5.5691	3.0361
5.56312	3.08825
5.55716	3.15959
5.55121	3.12265
5.54528	2.99497
5.53935	2.98694
5.53344	3.06963
5.52754	3.13945
5.52166	3.09726
5.51578	3.05694
5.50992	3.1291
5.50407	3.14678
5.49823	3.17745
5.49241	3.21173
5.4866	3.20421
5.4808	3.21559
5.47501	3.26469
5.46923	3.31798
5.46347	3.33539
5.45772	3.30724
5.45198	3.29111
5.44625	3.33815
5.44054	3.38759
5.43484	3.32894
5.42914	3.25979
5.42347	3.2971
5.4178	3.32442
5.41214	3.35894
5.4065	3.36205
5.40087	3.23367
5.39525	3.24817
5.38964	3.35997
5.38404	3.33637
5.37846	3.24051
5.37288	3.21839
5.36732	3.30892
5.36177	3.35335
5.35623	3.27509
5.35071	3.24404
5.34519	3.31908
5.33968	3.30193
5.33419	3.29086
5.32871	3.30837
5.32324	3.29456
5.31778	3.27764
5.31233	3.32431
5.30689	3.29924
5.30147	3.2536
5.29605	3.31414
5.29065	3.38052
5.28525	3.30772
5.27987	3.2565
5.2745	3.28912
5.26914	3.39484
5.26379	3.41725
5.25845	3.41501
5.25312	3.44202
5.24781	3.52707
5.2425	3.60721
5.23721	3.66368
5.23192	3.68602
5.22665	3.71383
5.22138	3.68773
5.21613	3.62062
5.21089	3.60142
5.20566	3.66838
5.20044	3.76588
5.19522	3.84046
5.19002	3.86797
5.18483	3.85443
5.17965	3.78736
5.17448	3.72972
5.16933	3.77919
5.16418	3.86782
5.15904	3.85248
5.15391	3.88535
5.14879	3.92479
5.14368	3.87142
5.13859	3.83711
5.1335	3.85955
5.12842	3.86695
5.12335	3.87589
5.1183	3.90822
5.11325	3.9437
5.10821	3.91544
5.10318	3.91836
5.09817	3.98193
5.09316	4.01607
5.08816	4.07687
5.08317	4.04874
5.07819	3.95831
5.07322	3.94643
5.06826	4.03696
5.06331	4.06752
5.05837	3.99465
5.05344	3.98963
5.04852	4.01349
5.04361	4.07604
5.03871	4.11383
5.03382	4.11934
5.02894	4.16716
5.02406	4.09314
5.0192	4.05235
5.01435	4.12949
5.0095	4.1266
5.00467	4.05859
4.99984	4.04355
4.99502	4.13823
4.99021	4.20618
4.98542	4.19743
4.98063	4.13449
4.97585	4.10021
4.97108	4.21787
4.96632	4.26576
4.96156	4.26039
4.95682	4.25213
4.95209	4.34155
4.94736	4.40845
4.94264	4.30184
4.93794	4.27634
4.93324	4.34655
4.92855	4.42852
4.92387	4.4583
4.9192	4.48658
4.91453	4.50321
4.90988	4.5235
4.90524	4.59809
4.9006	4.61724
4.89597	4.57366
4.89135	4.5402
4.88674	4.57215
4.88214	4.64709
4.87755	4.66625
4.87296	4.70838
4.86839	4.77984
4.86382	4.75102
4.85926	4.77689
4.85471	4.87954
4.85017	4.93198
4.84564	4.88705
4.84111	4.80912
4.8366	4.80863
4.83209	4.83788
4.82759	4.86085
4.8231	4.93924
4.81862	4.9738
4.81415	4.9097
4.80968	4.89205
4.80522	4.94117
4.80077	4.97485
4.79633	5.00369
4.7919	4.96879
4.78747	4.89095
4.78306	4.95052
4.77865	5.03281
4.77425	4.98087
4.76986	4.97618
4.76547	5.0824
4.7611	5.13643
4.75673	5.08913
4.75237	5.07434
4.74802	5.10589
4.74367	5.16049
4.73934	5.14263
4.73501	5.16704
4.73069	5.16149
4.72638	5.13006
4.72207	5.18235
4.71777	5.14129
4.71348	5.13113
4.7092	5.22802
4.70493	5.24221
4.70066	5.25198
4.69641	5.26266
4.69216	5.15983
4.68791	5.10269
4.68368	5.16095
4.67945	5.22292
4.67523	5.2871
4.67102	5.27311
4.66682	5.19928
4.66262	5.17556
4.65843	5.20404
4.65425	5.23903
4.65007	5.28646
4.64591	5.30637
4.64175	5.2881
4.6376	5.2654
4.63345	5.32217
4.62932	5.3794
4.62519	5.33748
4.62106	5.32282
4.61695	5.4023
4.61284	5.4565
4.60874	5.51724
4.60465	5.49674
4.60056	5.48102
4.59648	5.47011
4.59241	5.49479
4.58835	5.51997
4.58429	5.4653
4.58024	5.49852
4.5762	5.5281
4.57216	5.4652
4.56814	5.38609
4.56411	5.49547
4.5601	5.57102
4.55609	5.53469
4.55209	5.55313
4.5481	5.56044
4.54411	5.50079
4.54013	5.49167
4.53616	5.50612
4.5322	5.50108
4.52824	5.52154
4.52429	5.60646
4.52034	5.64848
4.51641	5.68562
4.51247	5.62504
4.50855	5.54494
4.50463	5.53526
4.50072	5.52867
4.49682	5.529
4.49292	5.61849
4.48903	5.68381
4.48515	5.60057
4.48127	5.52864
4.4774	5.47529
4.47354	5.46823
4.46968	5.48047
4.46584	5.57161
4.46199	5.67191
4.45815	5.61661
4.45432	5.5851
4.4505	5.53671
4.44668	5.55567
4.44287	5.64898
4.43907	5.70471
4.43527	5.67015
4.43148	5.61339
4.4277	5.62219
4.42392	5.6564
4.42015	5.64479
4.41638	5.63422
4.41262	5.63597
4.40887	5.61193
4.40513	5.58532
4.40139	5.67495
4.39765	5.75431
4.39393	5.74353
4.39021	5.75532
4.38649	5.78488
4.38278	5.77186
4.37908	5.70305
4.37539	5.68729
4.3717	5.75031
4.36801	5.72089
4.36434	5.76348
4.36067	5.81972
4.357	5.74551
4.35335	5.73265
4.34969	5.82801
4.34605	5.7826
4.34241	5.76477
4.33877	5.89652
4.33514	5.91454
4.33152	5.85858
4.32791	5.76969
4.3243	5.71333
4.32069	5.78587
4.3171	5.89111
4.31351	5.88183
4.30992	5.82784
4.30634	5.81759
4.30277	5.8519
4.2992	5.86057
4.29564	5.77821
4.29208	5.71278
4.28853	5.72275
4.28499	5.74499
4.28145	5.74364
4.27792	5.8563
4.27439	5.99065
4.27087	5.95001
4.26735	5.88577
4.26384	5.88055
4.26034	5.90259
4.25684	5.92302
4.25335	5.91267
4.24986	5.95193
4.24638	5.99192
4.24291	5.99132
4.23944	6.00399
4.23598	5.9917
4.23252	6.03765
4.22906	5.99125
4.22562	5.87287
4.22218	5.94863
4.21874	6.03151
4.21531	5.92687
4.21189	5.9046
4.20847	5.99516
4.20506	5.95367
4.20165	5.98287
4.19825	5.91871
4.19485	5.88193
4.19146	5.91204
4.18807	5.95512
4.18469	5.99751
4.18132	5.96951
4.17795	5.98191
4.17458	6.06968
4.17123	6.04636
4.16787	6.04548
4.16453	6.04539
4.16118	6.01235
4.15785	6.00987
4.15451	6.03362
4.15119	6.01191
4.14787	6.00388
4.14455	6.01478
4.14124	6.02549
4.13794	6.04503
4.13464	6.07949
4.13134	6.05946
4.12805	6.03215
4.12477	5.97661
4.12149	5.98603
4.11822	6.1146
4.11495	6.16348
4.11168	6.06336
4.10843	5.96488
4.10517	5.9712
4.10192	5.99361
4.09868	6.0603
4.09545	6.0764
4.09221	6.0333
4.08899	6.05528
4.08576	6.05392
4.08255	6.01836
4.07933	6.10331
4.07613	6.18571
4.07292	6.15772
4.06973	6.05369
4.06654	6.02736
4.06335	6.08956
4.06017	6.14213
4.05699	6.15011
4.05382	6.05637
4.05065	6.08344
4.04749	6.12588
4.04433	6.05159
4.04118	6.04935
4.03803	6.05999
4.03489	6.02671
4.03175	5.98455
4.02862	6.08496
4.02549	6.11232
4.02237	6.04965
4.01925	6.09686
4.01614	6.10095
4.01303	6.10237
4.00993	6.09748
4.00683	6.11469
4.00373	6.07816
4.00064	5.9996
3.99756	6.05758
3.99448	6.08105
3.9914	6.02005
3.98833	6.03239
3.98527	6.0707
3.98221	6.04076
3.97915	6.04671
3.9761	6.04477
3.97305	6.09876
3.97001	6.13243
3.96697	6.11275
3.96394	6.14679
3.96091	6.15762
3.95789	6.08004
3.95487	6.06861
3.95186	6.0935
3.94885	6.09374
3.94584	6.05569
3.94284	6.14373
3.93984	6.13494
3.93685	6.05147
3.93386	6.08897
3.93088	6.08656
3.9279	6.0465
3.92493	6.09337
3.92196	6.10978
3.919	6.08407
3.91604	6.09875
3.91308	6.22552
3.91013	6.25947
3.90718	6.14865
3.90424	6.12122
3.9013	6.14627
3.89837	6.15741
3.89544	6.19798
3.89252	6.23984
3.8896	6.22764
3.88668	6.20986
3.88377	6.1789
3.88086	6.19063
3.87796	6.11336
3.87506	6.13528
3.87217	6.16381
3.86928	6.1703
3.86639	6.20965
3.86351	6.22747
3.86064	6.1467
3.85776	6.16344
3.8549	6.21971
3.85203	6.15344
3.84917	6.08124
3.84631	6.14488
3.84346	6.19194
3.84062	6.23927
3.83777	6.22126
3.83494	6.2381
3.8321	6.28688
3.82927	6.2399
3.82644	6.17835
3.82362	6.14014
3.82081	6.10129
3.81799	6.11472
3.81518	6.18407
3.81238	6.19492
3.80958	6.20609
3.80678	6.21034
3.80399	6.1628
3.8012	6.14085
3.79841	6.1461
3.79563	6.13569
3.79286	6.14657
3.79008	6.15991
3.78731	6.13827
3.78455	6.19401
3.78179	6.23892
3.77903	6.27642
3.77628	6.25758
3.77353	6.22037
3.77079	6.2352
3.76805	6.19376
3.76531	6.20302
3.76258	6.28885
3.75985	6.26188
3.75713	6.16146
3.7544	6.15049
3.75169	6.12105
3.74898	6.1534
3.74627	6.23248
3.74356	6.25598
3.74086	6.22778
3.73816	6.17744
3.73547	6.13416
3.73278	6.16749
3.7301	6.22984
3.72741	6.19209
3.72474	6.17357
3.72206	6.17446
3.71939	6.26963
3.71673	6.35162
3.71406	6.33938
3.71141	6.31591
3.70875	6.31423
3.7061	6.24775
3.70345	6.27145
3.70081	6.19886
3.69817	6.06745
3.69553	6.11079
3.6929	6.18287
3.69027	6.19802
3.68765	6.17104
3.68503	6.1428
3.68241	6.19905
3.6798	6.3315
3.67719	6.26942
3.67458	6.15616
3.67198	6.20146
3.66938	6.1712
3.66678	6.19089
3.66419	6.29835
3.66161	6.28887
3.65902	6.23041
3.65644	6.21952
3.65387	6.27016
3.65129	6.21645
3.64872	6.12887
3.64616	6.12835
3.64359	6.13964
3.64103	6.17866
3.63848	6.17652
3.63593	6.13815
3.63338	6.16179
3.63084	6.18899
3.6283	6.19061
3.62576	6.16101
3.62322	6.26189
3.62069	6.30641
3.61817	6.23508
3.61564	6.22777
3.61312	6.29772
3.61061	6.27623
3.6081	6.23033
3.60559	6.21119
3.60308	6.16634
3.60058	6.12861
3.59808	6.17691
3.59558	6.27668
3.59309	6.19096
3.59061	6.05543
3.58812	6.07775
3.58564	6.06464
3.58316	6.09116
3.58069	6.16447
3.57822	6.19698
3.57575	6.12331
3.57328	6.09172
3.57082	6.16724
3.56836	6.10828
3.56591	6.07222
3.56346	6.14728
3.56101	6.20872
3.55857	6.2377
3.55613	6.27302
3.55369	6.20045
3.55126	6.09781
3.54883	6.06179
3.5464	6.07644
3.54397	6.09824
3.54155	6.12886
3.53914	6.13732
3.53672	6.10515
3.53431	6.1048
3.5319	6.17057
3.5295	6.10618
3.5271	6.06121
3.5247	6.03445
3.52231	6.07294
3.51991	6.05002
3.51753	6.01214
3.51514	6.07894
3.51276	6.10471
3.51038	6.14638
3.50801	6.08801
3.50563	6.02473
3.50327	6.10987
3.5009	6.16116
3.49854	6.08076
3.49618	5.98335
3.49382	5.99455
3.49147	6.10755
3.48912	6.05301
3.48677	6.051
3.48443	6.11268
3.48209	6.07033
3.47975	5.94944
3.47742	5.94823
3.47509	6.00868
3.47276	5.98705
3.47044	6.01204
3.46812	6.04716
3.4658	5.97945
3.46348	5.9458
3.46117	5.91783
3.45886	5.91219
3.45656	5.94269
3.45425	5.92722
3.45195	5.9369
3.44966	6.03157
3.44736	6.11622
3.44507	6.04885
3.44279	5.9317
3.4405	6.00171
3.43822	6.03497
3.43594	5.97262
3.43367	5.90445
3.43139	5.89849
3.42912	5.95721
3.42686	6.01637
3.42459	6.03259
3.42233	5.96286
3.42007	5.95208
3.41782	5.95477
3.41557	5.86981
3.41332	5.83485
3.41108	5.89361
3.40883	5.94927
3.40659	5.94847
3.40435	5.99198
3.40212	5.91802
3.39989	5.89862
3.39766	5.89554
3.39544	5.8443
3.39322	5.75563
3.391	5.73465
3.38878	5.80473
3.38657	5.84364
3.38436	5.89364
3.38215	5.84388
3.37994	5.76545
3.37774	5.77667
3.37554	5.8102
3.37335	5.84185
3.37115	5.85264
3.36896	5.82467
3.36678	5.74
3.36459	5.69088
3.36241	5.72184
3.36023	5.68541
3.35805	5.78098
3.35588	5.83407
3.35371	5.81588
3.35154	5.7771
3.34938	5.71218
3.34721	5.76993
3.34505	5.813
3.3429	5.68433
3.34074	5.68508
3.33859	5.75618
3.33644	5.78335
3.3343	5.80082
3.33215	5.77138
3.33001	5.63711
3.32788	5.60383
3.32574	5.64564
3.32361	5.67694
3.32148	5.6712
3.31936	5.67463
3.31723	5.70586
3.31511	5.73036
3.31299	5.76876
3.31088	5.79473
3.30876	5.77076
3.30665	5.5954
3.30455	5.54801
3.30244	5.53043
3.30034	5.52617
3.29824	5.61
3.29614	5.62345
3.29405	5.54452
3.29196	5.54048
3.28987	5.50056
3.28778	5.55934
3.2857	5.61842
3.28362	5.6001
3.28154	5.5469
3.27946	5.51768
3.27739	5.56606
3.27532	5.59089
3.27325	5.61021
3.27119	5.58095
3.26913	5.54591
3.26707	5.5743
3.26501	5.6462
3.26295	5.59334
3.2609	5.41756
3.25885	5.3614
3.2568	5.45486
3.25476	5.44606
3.25272	5.37095
3.25068	5.45027
3.24864	5.54018
3.24661	5.59371
3.24458	5.55853
3.24255	5.49706
3.24052	5.44545
3.2385	5.41607
3.23648	5.37161
3.23446	5.42035
3.23244	5.41917
3.23043	5.42451
3.22841	5.46382
3.2264	5.44706
3.2244	5.35596
3.22239	5.31384
3.22039	5.31097
3.21839	5.25023
3.2164	5.22789
3.2144	5.33641
3.21241	5.41922
3.21042	5.38986
3.20844	5.37786
3.20645	5.33291
3.20447	5.22392
3.20249	5.11955
3.20051	5.16935
3.19854	5.22383
3.19657	5.23032
3.1946	5.19658
3.19263	5.22773
3.19067	5.21258
3.1887	5.16906
3.18674	5.23968
3.18479	5.26571
3.18283	5.16937
3.18088	5.06465
3.17893	5.09411
3.17698	5.21587
3.17504	5.11531
3.17309	5.02083
3.17115	5.07877
3.16921	5.11252
3.16728	5.08043
3.16534	4.94809
3.16341	5.06439
3.16148	5.15565
3.15956	5.15548
3.15763	5.11064
3.15571	5.0241
3.15379	4.95341
3.15187	4.9389
3.14996	5.01211
3.14805	4.99739
3.14614	4.95234
3.14423	5.04004
3.14232	4.98487
3.14042	4.85664
3.13852	4.92598
3.13662	5.00401
3.13472	4.95146
3.13283	4.81067
3.13094	4.79743
3.12905	4.83941
3.12716	4.72979
3.12528	4.71852
3.12339	4.83903
3.12151	4.93478
3.11964	4.85367
3.11776	4.79378
3.11589	4.72165
3.11401	4.63786
3.11214	4.62637
3.11028	4.60976
3.10841	4.6272
3.10655	4.73767
3.10469	4.7902
3.10283	4.76915
3.10098	4.71581
3.09912	4.7151
3.09727	4.72891
3.09542	4.69152
3.09358	4.63272
3.09173	4.64354
3.08989	4.69899
3.08805	4.71863
3.08621	4.67571
3.08437	4.64041
3.08254	4.68581
3.08071	4.65614
3.07888	4.53913
3.07705	4.4754
3.07523	4.52134
3.0734	4.63005
3.07158	4.63628
3.06977	4.61158
3.06795	4.59916
3.06613	4.57545
3.06432	4.46766
3.06251	4.39938
3.0607	4.54879
3.0589	4.57913
3.0571	4.48997
3.05529	4.55622
3.05349	4.59537
3.0517	4.59689
3.0499	4.63049
3.04811	4.55223
3.04632	4.44633
3.04453	4.50889
3.04274	4.5602
3.04096	4.46543
3.03918	4.45774
3.0374	4.47062
3.03562	4.39722
3.03384	4.26165
3.03207	4.25443
3.03029	4.23278
3.02852	4.20137
3.02676	4.36202
3.02499	4.52914
3.02323	4.57294
3.02146	4.41043
3.0197	4.22457
3.01795	4.19958
3.01619	4.2808
3.01444	4.34981
3.01269	4.41171
3.01094	4.33739
3.00919	4.26186
3.00744	4.26974
3.0057	4.27332
3.00396	4.25396
3.00222	4.33809
3.00048	4.35089
2.99875	4.32092
2.99701	4.21395
2.99528	4.23249
2.99355	4.14502
2.99183	3.9722
2.9901	4.12292
2.98838	4.30077
2.98666	4.31209
2.98494	4.23926
2.98322	4.18367
2.9815	4.15968
2.97979	4.15562
2.97808	4.16692
2.97637	4.21886
2.97466	4.20197
2.97295	4.11896
2.97125	4.22435
2.96955	4.17366
2.96785	4.04742
2.96615	3.96808
2.96446	4.04721
2.96276	4.19218
2.96107	4.18837
2.95938	4.12685
2.95769	4.1364
2.95601	4.10543
2.95432	4.12862
2.95264	4.13085
2.95096	4.15447
2.94928	4.09124
2.9476	3.87615
2.94593	3.81157
2.94425	4.07812
2.94258	4.18171
2.94092	4.12575
2.93925	4.08903
2.93758	4.11878
2.93592	4.08385
2.93426	3.97231
2.9326	4.04261
2.93094	4.07797
2.92928	4.09299
2.92763	4.08469
2.92598	4.0351
2.92433	3.99558
2.92268	4.06025
2.92103	4.01951
2.91939	3.96568
2.91775	3.97667
2.9161	3.96869
2.91447	3.98333
2.91283	4.13434
2.91119	4.2269
2.90956	4.16779
2.90793	4.13094
2.9063	4.07095
2.90467	4.13089
2.90304	4.06921
2.90142	3.98906
2.89979	4.02792
2.89817	3.96979
2.89656	3.99851
2.89494	4.05894
2.89332	4.14579
2.89171	4.20158
2.8901	4.15996
2.88849	4.18186
2.88688	4.19076
2.88527	4.12372
2.88367	4.06434
2.88206	4.01308
2.88046	4.0922
2.87886	4.25539
2.87727	4.28825
2.87567	4.06846
2.87408	3.99738
2.87248	4.13127
2.87089	4.10027
2.8693	4.04272
2.86772	4.18278
2.86613	4.24515
2.86455	4.16267
2.86297	4.13318
2.86139	4.18235
2.85981	4.07487
2.85823	4.06669
2.85666	4.02609
2.85508	3.9215
2.85351	3.92636
2.85194	4.09385
2.85038	3.99729
2.84881	3.89741
2.84724	3.94922
2.84568	4.0823
2.84412	4.1826
2.84256	4.03689
2.841	3.88031
2.83945	3.88302
2.83789	4.05421
2.83634	4.11327
2.83479	4.02385
2.83324	4.02241
2.83169	4.06443
2.83015	4.06949
2.82861	4.11549
2.82706	3.97604
2.82552	3.85096
2.82398	3.89577
2.82245	3.97374
2.82091	3.8951
2.81938	3.89691
2.81784	3.95041
2.81631	3.9576
2.81479	3.94434
2.81326	3.82886
2.81173	3.73356
2.81021	3.84383
2.80869	3.95566
2.80716	3.79149
2.80565	3.81553
2.80413	3.96023
2.80261	3.93972
2.8011	3.9425
2.79959	3.99936
2.79808	3.94176
2.79657	3.86894
2.79506	3.91976
2.79355	3.99484
2.79205	3.9365
2.79055	4.08113
2.78904	4.25842
2.78754	4.09504
2.78605	3.97116
2.78455	4.11942
2.78306	4.1222
2.78156	4.03567
2.78007	4.00625
2.77858	3.90208
2.77709	4.00438
2.77561	4.19027
2.77412	4.23807
2.77264	4.1543
2.77116	4.05524
2.76968	4.07019
2.7682	4.07855
2.76672	3.96526
2.76524	3.95369
2.76377	3.97761
2.7623	4.03726
2.76083	4.16254
2.75936	4.32996
2.75789	4.24686
2.75642	4.2032
2.75496	4.15462
2.7535	4.20862
2.75203	4.25489
2.75057	4.05881
2.74912	3.98861
2.74766	4.02346
2.7462	3.95189
2.74475	3.98117
2.7433	4.2014
2.74185	4.40128
2.7404	4.47328
2.73895	4.26139
2.7375	4.00161
2.73606	4.02329
2.73462	4.31141
2.73318	4.58114
2.73174	4.66795
2.7303	4.75305
2.72886	4.65212
2.72742	4.5519
2.72599	4.65432
2.72456	4.89729
2.72313	4.93333
2.7217	4.93126
2.72027	4.97337
2.71884	4.94537
2.71742	5.07381
2.71599	5.20609
2.71457	5.29168
2.71315	5.43333
2.71173	5.5513
2.71032	5.44461
2.7089	5.43049
2.70748	5.3644
2.70607	5.28766
2.70466	5.33217
2.70325	5.42202
2.70184	5.47965
2.70043	5.53388
2.69903	5.54187
2.69762	5.53076
2.69622	5.63849
2.69482	5.85238
2.69342	5.89891
2.69202	5.70935
2.69062	5.58847
2.68923	5.65214
2.68783	5.6765
2.68644	5.82669
2.68505	5.87467
2.68366	5.83283
2.68227	5.91092
2.68089	5.96723
2.6795	6.09975
2.67812	6.04398
2.67673	5.88836
2.67535	5.91288
2.67397	6.0446
2.6726	6.12885
2.67122	6.23032
2.66984	6.21098
2.66847	6.02984
2.6671	5.96798
2.66572	5.96919
2.66435	5.95575
2.66299	5.82506
2.66162	5.85981
2.66025	6.07947
2.65889	6.13136
2.65753	5.99746
2.65616	5.88782
2.65481	5.82571
2.65345	5.99507
2.65209	6.14164
2.65073	6.00355
2.64938	5.96181
2.64803	5.98435
2.64667	5.95316
2.64532	5.89569
2.64397	5.8212
2.64263	5.93508
2.64128	6.07006
2.63994	6.00702
2.63859	5.83672
2.63725	5.81307
2.63591	5.90929
2.63457	5.93583
2.63323	5.94521
2.6319	6.01256
2.63056	6.05532
2.62923	5.96236
2.62789	5.9479
2.62656	5.98228
2.62523	5.89091
2.6239	5.99712
2.62258	6.10493
2.62125	6.11708
2.61993	5.9789
2.6186	5.71505
2.61728	5.7659
2.61596	5.95117
2.61464	6.00543
2.61332	5.95406
2.61201	5.90856
2.61069	5.91958
2.60938	5.96911
2.60807	5.99246
2.60675	6.04123
2.60544	6.0404
2.60414	5.96398
2.60283	5.97411
2.60152	5.95584
2.60022	5.90251
2.59891	5.89612
2.59761	6.0201
2.59631	6.17064
2.59501	6.15218
2.59371	5.88298
2.59242	5.74054
2.59112	5.69833
2.58983	5.72641
2.58853	5.9089
2.58724	6.11185
2.58595	6.08843
2.58466	6.00249
2.58338	6.00516
2.58209	5.88143
2.5808	5.81043
2.57952	5.84184
2.57824	5.8924
2.57695	5.83526
2.57567	5.89387
2.5744	6.05452
2.57312	6.09848
2.57184	6.00452
2.57057	5.92018
2.56929	5.9363
2.56802	5.99494
2.56675	5.93534
2.56548	5.91084
2.56421	5.95205
2.56294	5.99791
2.56168	5.98039
2.56041	5.98114
2.55915	5.96156
2.55789	5.85663
2.55662	5.92077
2.55536	5.89734
2.5541	5.8644
2.55285	5.89045
2.55159	5.89589
2.55034	5.86437
2.54908	5.85482
2.54783	5.7657
2.54658	5.75732
2.54533	5.77703
2.54408	5.84423
2.54283	5.90546
2.54159	5.90351
2.54034	5.89339
2.5391	5.86143
2.53785	5.9113
2.53661	6.01818
2.53537	5.96597
2.53413	5.85557
2.53289	5.94851
2.53166	6.01936
2.53042	5.94606
2.52919	5.8351
2.52795	5.84983
2.52672	5.85256
2.52549	5.90908
2.52426	5.94569
2.52303	5.85773
2.52181	5.76239
2.52058	5.75015
2.51936	5.92362
2.51813	5.94493
2.51691	5.88174
2.51569	5.89124
2.51447	5.95529
2.51325	5.95441
2.51203	5.88944
2.51082	5.82686
2.5096	5.91951
2.50839	5.96938
2.50717	5.901
2.50596	5.80562
2.50475	5.70998
2.50354	5.80945
2.50233	5.95578
2.50113	5.93635
2.49992	5.94954
2.49872	5.96576
2.49751	5.9687
2.49631	6.00431
2.49511	5.98025
2.49391	5.92853
2.49271	5.8755
2.49151	5.83671
2.49031	5.87619
2.48912	5.86795
2.48792	5.8584
2.48673	5.8483
2.48554	5.84152
2.48435	5.9251
2.48316	5.99957
2.48197	6.05917
2.48078	6.04377
2.4796	6.03642
2.47841	5.97791
2.47723	5.88424
2.47604	5.87357
2.47486	5.90001
2.47368	6.00147
2.4725	5.92806
2.47132	5.78157
2.47014	5.80818
2.46897	5.85319
2.46779	5.90207
2.46662	5.98478
2.46545	6.00866
2.46427	5.92723
2.4631	5.93304
2.46193	5.95934
2.46077	5.88334
2.4596	5.88796
2.45843	5.97934
2.45727	6.02812
2.4561	6.00989
2.45494	6.03734
2.45378	6.0164
2.45262	5.99056
2.45146	6.04409
2.4503	5.98736
2.44914	6.01114
2.44799	6.04987
2.44683	5.90355
2.44568	5.83869
2.44452	5.91501
2.44337	5.94612
2.44222	5.94047
2.44107	5.98506
2.43992	5.92378
2.43877	5.88695
2.43763	6.0512
2.43648	5.96161
2.43534	5.79202
2.43419	5.88922
2.43305	5.92185
2.43191	6.00771
2.43077	6.11038
2.42963	6.2077
2.42849	6.13654
2.42736	6.01381
2.42622	5.96437
2.42509	5.99861
2.42395	6.00421
2.42282	5.98822
2.42169	6.04095
2.42056	5.99356
2.41943	5.97824
2.4183	6.11785
2.41717	6.11545
2.41605	5.99288
2.41492	5.95478
2.4138	6.0685
2.41267	6.07048
2.41155	6.05128
2.41043	6.05506
2.40931	6.10026
2.40819	6.0076
2.40707	5.91903
2.40595	5.93844
2.40484	6.0464
2.40372	5.97187
2.40261	5.97407
2.4015	6.00733
2.40039	6.05523
2.39928	6.03312
2.39817	6.05944
2.39706	6.15003
2.39595	6.10635
2.39484	5.99224
2.39374	6.0139
2.39263	6.15029
2.39153	6.15323
2.39043	6.07704
2.38932	6.01911
2.38822	5.9666
2.38712	5.94113
2.38603	5.96872
2.38493	6.0639
2.38383	6.16614
2.38274	6.11675
2.38164	6.02142
2.38055	5.98816
2.37946	6.09039
2.37836	6.19917
2.37727	6.06469
2.37618	5.95785
2.3751	5.97246
2.37401	5.96861
2.37292	6.06062
2.37184	6.20242
2.37075	6.23927
2.36967	6.29249
2.36859	6.19066
2.3675	6.0542
2.36642	6.14274
2.36534	6.27334
2.36427	6.21417
2.36319	5.97406
2.36211	5.81694
2.36104	5.87956
2.35996	6.00946
2.35889	6.09098
2.35781	6.17455
2.35674	6.17735
2.35567	6.1807
2.3546	6.24656
2.35353	6.15825
2.35247	5.98123
2.3514	5.91764
2.35033	5.94141
2.34927	5.97754
2.3482	6.02431
2.34714	6.02233
2.34608	6.12238
2.34502	6.20442
2.34396	6.09452
2.3429	6.05739
2.34184	6.14544
2.34078	6.09937
2.33973	6.05411
2.33867	6.06755
2.33762	6.0026
2.33656	5.96285
2.33551	6.13869
2.33446	6.08506
2.33341	6.00087
2.33236	6.03078
2.33131	5.98976
2.33026	6.00644
2.32922	6.1987
2.32817	6.30188
2.32712	6.22861
2.32608	6.07918
2.32504	6.0713
2.324	6.15943
2.32295	6.22397
2.32191	6.06979
2.32087	5.93473
2.31984	6.01829
2.3188	6.12849
2.31776	6.24619
2.31673	6.21175
2.31569	6.22384
2.31466	6.30351
2.31362	6.30651
2.31259	6.37294
2.31156	6.24737
2.31053	6.17774
2.3095	6.18511
2.30847	6.15581
2.30745	6.18616
2.30642	6.21683
2.3054	6.24541
2.30437	6.28779
2.30335	6.32658
2.30232	6.26241
2.3013	6.27749
2.30028	6.24262
2.29926	6.14076
2.29824	6.08841
2.29722	6.26429
2.29621	6.49141
2.29519	6.39597
2.29417	6.20608
2.29316	6.23249
2.29215	6.26146
2.29113	6.37954
2.29012	6.50522
2.28911	6.39572
2.2881	6.36697
2.28709	6.46994
2.28608	6.51926
2.28507	6.54206
2.28407	6.46365
2.28306	6.42995
2.28206	6.45605
2.28105	6.42102
2.28005	6.35904
2.27905	6.36319
2.27805	6.38724
2.27705	6.40459
2.27605	6.40208
2.27505	6.30542
2.27405	6.36387
2.27305	6.52678
2.27206	6.60966
2.27106	6.48624
2.27007	6.39486
2.26907	6.41983
2.26808	6.42505
2.26709	6.52498
2.2661	6.61946
2.26511	6.68419
2.26412	6.62067
2.26313	6.53787
2.26214	6.44755
2.26116	6.35688
2.26017	6.25312
2.25919	6.23607
2.2582	6.34097
2.25722	6.42177
2.25624	6.46061
2.25526	6.4974
2.25428	6.65235
2.2533	6.53414
2.25232	6.49778
2.25134	6.6436
2.25036	6.52322
2.24939	6.39104
2.24841	6.32338
2.24744	6.45372
2.24646	6.65681
2.24549	6.65267
2.24452	6.64066
2.24355	6.73202
2.24257	6.67736
2.24161	6.56725
2.24064	6.58273
2.23967	6.56489
2.2387	6.70219
2.23774	6.73443
2.23677	6.61023
2.23581	6.5232
2.23484	6.47771
2.23388	6.61604
2.23292	6.76927
2.23196	6.87362
2.231	6.90563
2.23004	6.89216
2.22908	6.81425
2.22812	6.71427
2.22716	6.59763
2.22621	6.58902
2.22525	6.67021
2.2243	6.67978
2.22334	6.64351
2.22239	6.54288
2.22144	6.5691
2.22049	6.66305
2.21953	6.72435
2.21859	6.79069
2.21764	6.86727
2.21669	6.7429
2.21574	6.61349
2.21479	6.62534
2.21385	6.63627
2.2129	6.6378
2.21196	6.84344
2.21102	6.98856
2.21007	6.80659
2.20913	6.67627
2.20819	6.63096
2.20725	6.75387
2.20631	6.75997
2.20537	6.7564
2.20444	6.96406
2.2035	6.96569
2.20256	6.92007
2.20163	6.95512
2.20069	6.94091
2.19976	6.7673
2.19883	6.59292
2.19789	6.60466
2.19696	6.62209
2.19603	6.73294
2.1951	6.80446
2.19417	6.91
2.19325	6.8243
2.19232	6.69998
2.19139	6.92798
2.19047	6.92422
2.18954	6.66631
2.18862	6.67361
2.18769	6.75605
2.18677	6.7917
2.18585	6.9086
2.18493	7.0691
2.18401	6.90163
2.18309	6.79466
2.18217	6.92718
2.18125	7.00243
2.18033	7.01773
2.17942	6.90766
2.1785	6.82909
2.17759	6.83922
2.17667	6.75465
2.17576	6.788
2.17485	6.82645
2.17393	6.8476
2.17302	6.97663
2.17211	7.05313
2.1712	6.9677
2.17029	6.89648
2.16939	6.94764
2.16848	6.89635
2.16757	6.72324
2.16667	6.86071
2.16576	6.96652
2.16486	6.95532
2.16395	6.91908
2.16305	6.83544
2.16215	6.7716
2.16125	6.88237
2.16035	7.12411
2.15945	7.28222
2.15855	7.23968
2.15765	7.14078
2.15675	7.03004
2.15586	6.94215
2.15496	6.90889
2.15406	6.72032
2.15317	6.764
2.15228	6.91706
2.15138	7.03716
2.15049	7.02085
2.1496	6.95654
2.14871	6.82971
2.14782	6.68537
2.14693	6.91623
2.14604	7.06756
2.14515	7.08199
2.14427	7.13091
2.14338	7.06388
2.14249	7.20349
2.14161	7.31689
2.14072	7.19183
2.13984	7.15421
2.13896	7.12583
2.13808	7.10706
2.13719	7.08303
2.13631	7.04316
2.13543	6.98375
2.13455	6.91615
2.13368	7.06905
2.1328	7.24282
2.13192	7.1983
2.13105	6.99032
2.13017	7.04799
2.1293	7.12092
2.12842	6.92156
2.12755	6.78006
2.12668	6.89311
2.1258	6.89408
2.12493	6.94242
2.12406	7.11603
2.12319	7.14544
2.12232	7.01352
2.12145	7.10521
2.12059	7.17165
2.11972	7.15109
2.11885	7.15107
2.11799	7.07598
2.11712	7.11097
2.11626	7.09293
2.1154	6.9417
2.11453	7.02617
2.11367	7.00332
2.11281	7.05753
2.11195	7.26259
2.11109	7.2125
2.11023	7.18325
2.10937	7.06859
2.10851	7.0319
2.10766	6.99776
2.1068	6.98512
2.10594	7.30522
2.10509	7.21712
2.10423	7.20802
2.10338	7.33258
2.10253	7.18942
2.10168	7.04855
2.10082	7.0333
2.09997	7.20194
2.09912	7.25729
2.09827	7.28667
2.09742	7.12774
2.09658	7.01603
2.09573	7.18608
2.09488	7.23382
2.09404	7.24535
2.09319	7.23418
2.09235	7.01657
2.0915	6.9452
2.09066	7.31589
2.08982	7.49866
2.08897	7.46251
2.08813	7.34789
2.08729	7.20159
2.08645	7.3186
2.08561	7.26652
2.08477	7.10924
2.08394	7.12368
2.0831	7.15079
2.08226	7.22245
2.08143	7.00589
2.08059	6.99153
2.07976	7.04958
2.07892	6.82003
2.07809	6.97654
2.07726	7.04489
2.07643	6.83371
2.07559	6.86856
2.07476	7.01895
2.07393	7.24865
2.0731	7.26621
2.07228	7.09054
2.07145	7.09156
2.07062	7.09869
2.06979	7.09426
2.06897	7.10585
2.06814	7.07068
2.06732	7.22752
2.06649	7.45466
2.06567	7.42677
2.06485	7.51077
2.06403	7.43842
2.0632	7.36771
2.06238	7.28804
2.06156	7.13383
2.06074	7.21312
2.05993	7.26214
2.05911	7.14939
2.05829	6.88814
2.05747	6.77044
2.05666	7.0575
2.05584	7.39394
2.05503	7.26412
2.05421	7.13989
2.0534	7.24473
2.05259	7.22876
2.05177	7.24898
2.05096	7.01984
2.05015	7.10905
2.04934	7.29009
2.04853	7.20953
2.04772	7.26004
2.04691	7.30773
2.04611	7.14056
2.0453	7.02544
2.04449	7.10991
2.04369	7.28566
2.04288	7.24623
2.04208	7.25236
2.04127	7.13811
2.04047	7.07187
2.03967	7.22709
2.03886	7.42373
2.03806	7.37305
2.03726	7.28025
2.03646	7.1852
2.03566	7.05631
2.03486	7.16955
2.03407	7.21925
2.03327	7.05345
2.03247	7.19464
2.03167	7.23
2.03088	7.20568
2.03008	7.17616
2.02929	7.0648
2.0285	7.14966
2.0277	7.43605
2.02691	7.3188
2.02612	7.08343
2.02533	6.99208
2.02453	7.27812
2.02374	7.4155
2.02295	7.35438
2.02217	7.32777
2.02138	7.1883
2.02059	6.81368
2.0198	6.7446
2.01902	7.15805
2.01823	7.29972
2.01744	7.23292
2.01666	7.09739
2.01588	7.12827
2.01509	7.36088
2.01431	7.35455
2.01353	7.28473
2.01275	7.21835
2.01196	7.32084
2.01118	7.36929
2.0104	7.259
2.00963	7.36083
2.00885	7.60653
2.00807	7.41314
2.00729	7.05985
2.00651	7.0221
2.00574	7.20442
2.00496	7.40511
2.00419	7.43157
2.00341	7.33471
2.00264	7.32696
2.00187	7.22188
2.00109	7.21587
2.00032	7.27351
