Name: Trona Na_3(CO_3)(HCO_3).2H_2O
Type: Mineral
Class: Carbonates
Subclass: 
Particle Size: 125-500um
Sample No.: C-4A
Owner: JPL
Wavelength range: IR
Origin: USA, Wyoming, Sweetwater County
Collected by Ward's
Description: 





Measurement: Hemispherical reflectance
First Column: X
Second Column: Y
X Units:  Wavelength (micrometers)
Y Units:  Reflectance (percent)
First X Value: 15.3853
Last X Value: 2.00032
Number of X Values: 2256
Additional information: c04aa.txt
 
15.3853	6.94191
15.3397	7.2512
15.2945	7.39978
15.2495	7.31271
15.2048	6.95662
15.1603	6.88494
15.1161	6.54003
15.0722	5.63489
15.0285	4.7715
14.9851	4.18181
14.9419	4.15811
14.8989	4.30014
14.8563	4.23724
14.8138	4.50196
14.7716	4.64633
14.7296	4.34922
14.6879	3.97996
14.6464	3.72025
14.6052	3.65642
14.5641	3.29111
14.5233	2.60959
14.4828	2.19612
14.4424	1.98531
14.4023	1.69517
14.3624	1.32332
14.3227	1.21108
14.2833	1.01596
14.244	0.923751
14.205	1.04517
14.1662	1.26756
14.1276	1.49952
14.0892	1.60488
14.051	1.7598
14.0131	1.94863
13.9753	1.67299
13.9377	1.4726
13.9004	1.58838
13.8632	1.94553
13.8262	2.04146
13.7895	1.93991
13.7529	2.01008
13.7165	2.06807
13.6803	2.13921
13.6443	2.26784
13.6085	2.37651
13.5729	2.42534
13.5374	2.38813
13.5022	2.54677
13.4671	2.7011
13.4322	2.75155
13.3975	2.73141
13.363	2.68823
13.3286	2.77682
13.2944	2.92384
13.2604	2.93425
13.2266	3.00509
13.193	3.10189
13.1595	3.20395
13.1262	3.27494
13.093	3.37106
13.06	3.59129
13.0272	3.71824
12.9946	3.58062
12.9621	3.48916
12.9298	3.51212
12.8976	3.60858
12.8656	3.75403
12.8337	3.77992
12.8021	3.75431
12.7705	3.82833
12.7391	3.90697
12.7079	3.91887
12.6769	3.90187
12.6459	4.06008
12.6152	4.14886
12.5845	4.00604
12.5541	4.02975
12.5238	4.07099
12.4936	4.00857
12.4635	4.06178
12.4337	4.10333
12.4039	4.07216
12.3743	3.98641
12.3448	3.96448
12.3155	4.00705
12.2863	4.09118
12.2573	4.05181
12.2284	3.98386
12.1996	4.09442
12.171	4.23841
12.1425	4.40576
12.1141	4.43969
12.0859	4.45224
12.0578	4.49688
12.0298	4.58518
12.0019	4.67584
11.9742	4.74922
11.9466	5.07059
11.9192	5.35246
11.8918	5.74169
11.8646	6.43268
11.8375	7.43453
11.8106	9.2471
11.7837	11.7897
11.757	14.0811
11.7304	14.9431
11.7039	14.3562
11.6776	12.7076
11.6513	10.6768
11.6252	8.82975
11.5992	7.43421
11.5733	6.32019
11.5475	5.39816
11.5219	4.71898
11.4963	4.32115
11.4709	4.1479
11.4455	3.98711
11.4203	3.94078
11.3952	3.87948
11.3702	3.88921
11.3454	3.79313
11.3206	3.69012
11.2959	3.6366
11.2714	3.65622
11.2469	3.65301
11.2226	3.56388
11.1983	3.53606
11.1742	3.52756
11.1502	3.5134
11.1263	3.65149
11.1024	3.60239
11.0787	3.55859
11.0551	3.52621
11.0316	3.52703
11.0081	3.498
10.9848	3.3904
10.9616	3.39637
10.9385	3.52854
10.9154	3.66227
10.8925	3.67531
10.8697	3.62883
10.8469	3.70441
10.8243	3.65446
10.8017	3.47343
10.7793	3.39434
10.7569	3.48985
10.7346	3.55705
10.7125	3.52198
10.6904	3.47927
10.6684	3.58599
10.6465	3.65582
10.6247	3.69124
10.6029	3.68223
10.5813	3.70107
10.5597	3.75954
10.5383	3.81611
10.5169	3.7262
10.4956	3.73198
10.4744	3.85649
10.4533	3.86303
10.4323	3.88028
10.4113	3.94564
10.3904	3.95108
10.3697	3.92826
10.349	3.89498
10.3284	3.85251
10.3078	3.84915
10.2874	3.81208
10.267	3.76263
10.2467	3.86781
10.2265	3.9959
10.2064	3.96785
10.1863	3.97129
10.1663	4.05534
10.1464	3.94637
10.1266	3.83633
10.1069	3.89031
10.0872	3.93887
10.0676	3.86095
10.0481	3.90625
10.0287	4.06653
10.0093	4.06783
9.99005	4.05492
9.97084	4.01427
9.95169	3.88478
9.93263	3.81102
9.91364	3.86888
9.89472	3.93413
9.87587	3.88056
9.8571	3.92566
9.83839	3.91748
9.81976	3.90654
9.80119	3.86562
9.78271	3.86613
9.76428	3.88832
9.74592	3.78687
9.72764	3.69264
9.70943	3.76767
9.69128	3.79619
9.6732	3.75153
9.65518	3.70051
9.63724	3.66982
9.61935	3.56753
9.60155	3.35865
9.5838	3.17519
9.56611	3.12416
9.5485	3.01515
9.53094	3.01297
9.51345	3.31745
9.49604	3.81205
9.47867	4.11094
9.46137	4.28644
9.44414	4.3968
9.42697	4.50855
9.40986	4.56554
9.39281	4.35994
9.37583	4.28704
9.35891	4.26086
9.34204	4.31541
9.32524	4.44066
9.3085	4.36718
9.29182	4.29586
9.27519	4.37881
9.25863	4.43953
9.24213	4.38615
9.22568	4.44621
9.2093	4.41705
9.19297	4.23109
9.17669	4.16196
9.16048	4.24508
9.14433	4.22926
9.12823	4.15344
9.11218	4.17715
9.0962	4.28222
9.08027	4.26462
9.06439	4.28077
9.04858	4.20371
9.03281	4.23209
9.0171	4.32328
9.00145	4.18645
8.98585	4.10505
8.9703	4.11668
8.9548	4.08038
8.93937	4.1782
8.92398	4.25643
8.90865	4.27424
8.89337	4.23748
8.87814	4.16773
8.86296	4.08478
8.84784	4.06604
8.83277	4.05718
8.81774	4.07978
8.80277	4.12244
8.78786	4.14182
8.77298	4.01415
8.75816	3.96541
8.7434	4.07219
8.72868	4.16038
8.714	4.18155
8.69938	4.12096
8.68481	4.07589
8.67029	4.18667
8.65581	4.15134
8.64139	4.08769
8.62701	4.23756
8.61268	4.29259
8.5984	4.3284
8.58416	4.25991
8.56997	4.17618
8.55583	4.31016
8.54174	4.47121
8.52769	4.51684
8.51368	4.54455
8.49973	4.51045
8.48582	4.50087
8.47195	4.62297
8.45813	4.72188
8.44436	4.7018
8.43062	4.48243
8.41693	4.31975
8.4033	4.46395
8.3897	4.43963
8.37614	4.45862
8.36264	4.66904
8.34917	4.78414
8.33574	4.60362
8.32236	4.49897
8.30903	4.5861
8.29573	4.55253
8.28248	4.50094
8.26927	4.48541
8.2561	4.4458
8.24298	4.28306
8.2299	4.25273
8.21685	4.31734
8.20385	4.264
8.19089	4.31055
8.17797	4.24367
8.16509	4.07987
8.15225	4.14572
8.13946	4.09858
8.1267	4.00097
8.11398	4.03713
8.10131	3.93493
8.08867	3.78168
8.07606	3.76052
8.0635	3.71769
8.05099	3.67388
8.0385	3.66495
8.02606	3.68799
8.01366	3.68823
8.00129	3.60495
7.98896	3.55988
7.97667	3.52179
7.96442	3.50895
7.9522	3.46134
7.94002	3.34321
7.92788	3.3363
7.91578	3.26838
7.90371	3.20498
7.89168	3.28106
7.87969	3.30398
7.86773	3.19816
7.85581	3.16253
7.84392	3.15109
7.83207	3.11336
7.82026	2.9997
7.80849	3.02103
7.79674	3.09109
7.78503	2.99091
7.77337	2.85613
7.76173	2.90646
7.75012	2.94275
7.73856	2.82477
7.72703	2.69322
7.71553	2.69901
7.70406	2.75695
7.69263	2.81131
7.68123	2.79581
7.66987	2.76972
7.65855	2.82067
7.64725	2.8363
7.63598	2.72675
7.62475	2.66395
7.61356	2.67672
7.60239	2.71616
7.59126	2.75627
7.58017	2.69093
7.5691	2.64217
7.55806	2.6119
7.54707	2.60693
7.5361	2.59427
7.52516	2.61782
7.51425	2.62019
7.50338	2.52829
7.49253	2.46214
7.48172	2.53618
7.47094	2.6204
7.46019	2.48906
7.44947	2.38538
7.43879	2.41553
7.42813	2.44773
7.4175	2.44403
7.4069	2.46344
7.39634	2.38377
7.3858	2.30039
7.37529	2.32969
7.36482	2.39259
7.35437	2.40443
7.34396	2.3169
7.33357	2.29289
7.32321	2.33713
7.31288	2.39779
7.30258	2.31901
7.29231	2.28832
7.28207	2.35978
7.27185	2.31019
7.26167	2.2404
7.25152	2.2656
7.24139	2.18256
7.23129	2.10881
7.22122	2.14847
7.21117	2.24028
7.20116	2.26975
7.19117	2.10591
7.18121	2.05752
7.17128	2.12941
7.16137	2.18258
7.1515	2.20542
7.14164	2.21375
7.13182	2.17792
7.12203	2.17038
7.11225	2.19123
7.10251	2.12146
7.0928	2.03737
7.08311	2.09338
7.07344	2.16967
7.06381	2.2062
7.0542	2.19096
7.04461	2.17252
7.03506	2.10842
7.02552	2.08676
7.01601	2.10449
7.00653	2.15987
6.99708	2.28892
6.98765	2.31598
6.97824	2.33462
6.96886	2.41725
6.95951	2.44744
6.95018	2.50741
6.94087	2.59531
6.9316	2.64792
6.92234	2.63582
6.91311	2.71562
6.90391	2.82353
6.89473	2.84636
6.88557	2.86907
6.87644	3.06619
6.86733	3.39353
6.85824	3.50913
6.84918	3.44219
6.84015	3.46223
6.83114	3.62584
6.82215	3.68578
6.81319	3.60388
6.80424	3.65818
6.79532	3.83561
6.78643	3.92678
6.77756	3.84909
6.76871	3.85062
6.75989	3.89389
6.75109	3.91867
6.74231	3.80084
6.73355	3.61848
6.72482	3.58821
6.71611	3.54983
6.70742	3.2907
6.69875	2.99736
6.69011	2.82728
6.68149	2.73526
6.67289	2.55797
6.66431	2.26546
6.65576	1.97276
6.64722	1.96387
6.63871	1.92638
6.63022	1.75174
6.62175	1.50675
6.61331	1.34789
6.60488	1.30895
6.59648	1.28395
6.5881	1.11721
6.57974	1.02877
6.5714	1.11763
6.56308	1.08821
6.55478	1.00501
6.54651	0.952842
6.53825	0.954576
6.53001	0.94547
6.5218	0.952941
6.51361	0.96119
6.50544	0.876079
6.49729	0.844025
6.48915	0.841084
6.48104	0.798989
6.47295	0.778712
6.46488	0.775114
6.45683	0.783854
6.4488	0.780984
6.44079	0.832263
6.4328	0.856685
6.42482	0.75876
6.41687	0.725067
6.40894	0.85859
6.40103	0.843237
6.39314	0.76839
6.38526	0.721884
6.37741	0.693516
6.36957	0.629133
6.36176	0.623196
6.35396	0.62313
6.34618	0.632349
6.33843	0.703418
6.33069	0.73381
6.32297	0.731597
6.31527	0.849572
6.30758	0.927047
6.29992	0.875954
6.29227	0.870234
6.28465	0.927781
6.27704	0.917422
6.26945	0.876283
6.26188	0.809116
6.25432	0.72964
6.24679	0.799847
6.23927	0.897316
6.23177	0.936222
6.22429	0.901024
6.21683	0.978348
6.20938	0.934543
6.20195	0.897443
6.19454	1.00711
6.18715	1.04725
6.17978	1.0025
6.17242	1.05492
6.16508	1.08371
6.15776	1.11338
6.15045	1.1193
6.14317	1.08975
6.1359	1.15746
6.12864	1.18559
6.12141	1.21444
6.11419	1.26839
6.10699	1.21099
6.0998	1.15914
6.09263	1.229
6.08549	1.27936
6.07835	1.28482
6.07123	1.36677
6.06413	1.32488
6.05705	1.27434
6.04998	1.35397
6.04293	1.39138
6.0359	1.42525
6.02888	1.42554
6.02187	1.42245
6.01489	1.46138
6.00792	1.43336
6.00096	1.4641
5.99403	1.50044
5.98711	1.41229
5.9802	1.44873
5.97331	1.53839
5.96644	1.57484
5.95958	1.68776
5.95274	1.7455
5.94591	1.68883
5.9391	1.72892
5.9323	1.76812
5.92552	1.78436
5.91876	1.78949
5.91201	1.75337
5.90528	1.87488
5.89856	2.00717
5.89186	1.90972
5.88517	1.90809
5.8785	1.9708
5.87184	1.83584
5.8652	1.78064
5.85857	1.84346
5.85196	1.8988
5.84536	1.8129
5.83878	1.73433
5.83221	1.71623
5.82566	1.7942
5.81912	1.82064
5.81259	1.78682
5.80608	1.73057
5.79959	1.7004
5.79311	1.66954
5.78665	1.66551
5.78019	1.73295
5.77376	1.71655
5.76734	1.71925
5.76093	1.68161
5.75453	1.59123
5.74815	1.50547
5.74179	1.48059
5.73543	1.42053
5.7291	1.33622
5.72277	1.3186
5.71646	1.34673
5.71017	1.37912
5.70389	1.28196
5.69762	1.21745
5.69136	1.22714
5.68513	1.22153
5.6789	1.14741
5.67268	1.08279
5.66648	1.17912
5.6603	1.2404
5.65413	1.22744
5.64797	1.1268
5.64182	1.05112
5.63569	1.08054
5.62957	1.13827
5.62347	1.09534
5.61737	0.985667
5.61129	0.975963
5.60522	1.01775
5.59917	0.984812
5.59313	1.00043
5.5871	0.995867
5.58109	0.929013
5.57509	0.947535
5.5691	0.968512
5.56312	0.965304
5.55716	0.948511
5.55121	0.990046
5.54528	0.975445
5.53935	0.876141
5.53344	0.821771
5.52754	0.843234
5.52166	0.862421
5.51578	0.836203
5.50992	0.85352
5.50407	0.867708
5.49823	0.938887
5.49241	0.950666
5.4866	0.934063
5.4808	0.933252
5.47501	0.81026
5.46923	0.769478
5.46347	0.811297
5.45772	0.784526
5.45198	0.806324
5.44625	0.862563
5.44054	0.885138
5.43484	0.875179
5.42914	0.814572
5.42347	0.774502
5.4178	0.868512
5.41214	0.88084
5.4065	0.799653
5.40087	0.814661
5.39525	0.895847
5.38964	0.906166
5.38404	0.871147
5.37846	0.814009
5.37288	0.798168
5.36732	0.80441
5.36177	0.752879
5.35623	0.743357
5.35071	0.826441
5.34519	0.874481
5.33968	0.858114
5.33419	0.933649
5.32871	0.945281
5.32324	0.88056
5.31778	0.876996
5.31233	0.854334
5.30689	0.834199
5.30147	0.852181
5.29605	0.868426
5.29065	0.880857
5.28525	0.900335
5.27987	0.853979
5.2745	0.804645
5.26914	0.80963
5.26379	0.901155
5.25845	0.999644
5.25312	0.909092
5.24781	0.863124
5.2425	0.806873
5.23721	0.896585
5.23192	0.927965
5.22665	0.854009
5.22138	0.921781
5.21613	0.972262
5.21089	0.930188
5.20566	0.874495
5.20044	0.766379
5.19522	0.770602
5.19002	0.85384
5.18483	0.839341
5.17965	0.834961
5.17448	0.887842
5.16933	0.900704
5.16418	0.88337
5.15904	0.922918
5.15391	0.877335
5.14879	0.837323
5.14368	0.807302
5.13859	0.870638
5.1335	0.89899
5.12842	0.867681
5.12335	0.801578
5.1183	0.819025
5.11325	0.94874
5.10821	1.00372
5.10318	0.973206
5.09817	1.00286
5.09316	0.975197
5.08816	0.960939
5.08317	1.01853
5.07819	1.00511
5.07322	0.90169
5.06826	0.878312
5.06331	0.946368
5.05837	0.987814
5.05344	0.92637
5.04852	0.92525
5.04361	0.963495
5.03871	0.939985
5.03382	0.93642
5.02894	0.959616
5.02406	0.94651
5.0192	0.93674
5.01435	0.949971
5.0095	0.958811
5.00467	1.03325
4.99984	1.03272
4.99502	0.976808
4.99021	0.956676
4.98542	0.953174
4.98063	0.974069
4.97585	0.964881
4.97108	0.909305
4.96632	0.871929
4.96156	1.00625
4.95682	1.04884
4.95209	0.976833
4.94736	0.987339
4.94264	0.970317
4.93794	0.913173
4.93324	0.917461
4.92855	0.94403
4.92387	1.02444
4.9192	0.992999
4.91453	0.943806
4.90988	0.971858
4.90524	1.05171
4.9006	1.07983
4.89597	1.03723
4.89135	1.01062
4.88674	1.02626
4.88214	1.00263
4.87755	1.00033
4.87296	1.02113
4.86839	1.01566
4.86382	0.956915
4.85926	0.973277
4.85471	0.968338
4.85017	1.03263
4.84564	1.02309
4.84111	1.04211
4.8366	1.04702
4.83209	1.03438
4.82759	1.09253
4.8231	1.04156
4.81862	0.962167
4.81415	0.971536
4.80968	1.01914
4.80522	1.06026
4.80077	1.02487
4.79633	1.02225
4.7919	0.982268
4.78747	0.924834
4.78306	0.930345
4.77865	0.98299
4.77425	1.01244
4.76986	1.05643
4.76547	1.07049
4.7611	1.049
4.75673	0.984903
4.75237	0.967613
4.74802	0.990861
4.74367	1.03992
4.73934	1.03875
4.73501	1.06916
4.73069	1.05895
4.72638	1.04769
4.72207	1.04699
4.71777	1.11572
4.71348	1.11643
4.7092	1.13429
4.70493	1.12387
4.70066	1.08307
4.69641	1.11762
4.69216	1.13731
4.68791	1.1135
4.68368	1.11883
4.67945	1.07873
4.67523	1.09723
4.67102	1.11344
4.66682	1.14034
4.66262	1.16174
4.65843	1.11275
4.65425	1.11827
4.65007	1.15383
4.64591	1.14015
4.64175	1.07276
4.6376	0.984563
4.63345	1.0368
4.62932	1.09021
4.62519	1.06813
4.62106	1.13356
4.61695	1.20182
4.61284	1.13958
4.60874	1.06323
4.60465	1.15447
4.60056	1.28747
4.59648	1.21081
4.59241	1.1174
4.58835	1.10856
4.58429	1.19968
4.58024	1.25145
4.5762	1.23289
4.57216	1.1716
4.56814	1.09327
4.56411	1.16112
4.5601	1.20026
4.55609	1.24091
4.55209	1.29847
4.5481	1.33556
4.54411	1.20907
4.54013	1.1107
4.53616	1.18099
4.5322	1.15421
4.52824	1.11692
4.52429	1.14795
4.52034	1.12731
4.51641	1.06064
4.51247	1.14986
4.50855	1.27504
4.50463	1.29643
4.50072	1.2643
4.49682	1.25052
4.49292	1.1832
4.48903	1.18845
4.48515	1.21646
4.48127	1.21225
4.4774	1.18418
4.47354	1.18119
4.46968	1.21041
4.46584	1.19338
4.46199	1.25299
4.45815	1.28258
4.45432	1.19914
4.4505	1.14964
4.44668	1.23513
4.44287	1.2367
4.43907	1.1831
4.43527	1.17752
4.43148	1.20233
4.4277	1.20359
4.42392	1.24157
4.42015	1.28568
4.41638	1.22747
4.41262	1.13244
4.40887	1.22079
4.40513	1.24561
4.40139	1.25061
4.39765	1.30849
4.39393	1.26854
4.39021	1.23643
4.38649	1.2002
4.38278	1.18055
4.37908	1.15359
4.37539	1.15141
4.3717	1.22001
4.36801	1.23256
4.36434	1.23745
4.36067	1.19767
4.357	1.18453
4.35335	1.16492
4.34969	1.1399
4.34605	1.1924
4.34241	1.20955
4.33877	1.25835
4.33514	1.31968
4.33152	1.31853
4.32791	1.28062
4.3243	1.25479
4.32069	1.32701
4.3171	1.32479
4.31351	1.31656
4.30992	1.35622
4.30634	1.31849
4.30277	1.25765
4.2992	1.26651
4.29564	1.26072
4.29208	1.25681
4.28853	1.24596
4.28499	1.18342
4.28145	1.28709
4.27792	1.3636
4.27439	1.32365
4.27087	1.3236
4.26735	1.3525
4.26384	1.32902
4.26034	1.28086
4.25684	1.31502
4.25335	1.34887
4.24986	1.36713
4.24638	1.28789
4.24291	1.27649
4.23944	1.34874
4.23598	1.40775
4.23252	1.42381
4.22906	1.38614
4.22562	1.36718
4.22218	1.32808
4.21874	1.32717
4.21531	1.38007
4.21189	1.29721
4.20847	1.26979
4.20506	1.3393
4.20165	1.35411
4.19825	1.32756
4.19485	1.31982
4.19146	1.30098
4.18807	1.24874
4.18469	1.31539
4.18132	1.41555
4.17795	1.46794
4.17458	1.40848
4.17123	1.33059
4.16787	1.3259
4.16453	1.32214
4.16118	1.3016
4.15785	1.27131
4.15451	1.38109
4.15119	1.43333
4.14787	1.35187
4.14455	1.27252
4.14124	1.28806
4.13794	1.33268
4.13464	1.36074
4.13134	1.33892
4.12805	1.30967
4.12477	1.34482
4.12149	1.33882
4.11822	1.358
4.11495	1.38645
4.11168	1.30169
4.10843	1.34415
4.10517	1.37026
4.10192	1.35667
4.09868	1.35599
4.09545	1.30594
4.09221	1.34331
4.08899	1.3367
4.08576	1.30253
4.08255	1.3017
4.07933	1.29395
4.07613	1.27846
4.07292	1.29807
4.06973	1.35098
4.06654	1.35771
4.06335	1.32894
4.06017	1.34351
4.05699	1.35158
4.05382	1.34407
4.05065	1.3586
4.04749	1.35831
4.04433	1.34909
4.04118	1.3478
4.03803	1.34335
4.03489	1.34163
4.03175	1.36621
4.02862	1.43504
4.02549	1.46386
4.02237	1.47568
4.01925	1.41507
4.01614	1.3424
4.01303	1.30139
4.00993	1.35763
4.00683	1.41702
4.00373	1.48631
4.00064	1.44231
3.99756	1.35593
3.99448	1.37278
3.9914	1.31682
3.98833	1.33537
3.98527	1.40327
3.98221	1.44105
3.97915	1.49318
3.9761	1.42283
3.97305	1.38522
3.97001	1.39154
3.96697	1.30812
3.96394	1.38019
3.96091	1.49166
3.95789	1.43508
3.95487	1.3928
3.95186	1.32701
3.94885	1.28782
3.94584	1.4144
3.94284	1.45328
3.93984	1.46726
3.93685	1.45059
3.93386	1.37753
3.93088	1.37924
3.9279	1.36276
3.92493	1.42355
3.92196	1.51141
3.919	1.5733
3.91604	1.50143
3.91308	1.38878
3.91013	1.36824
3.90718	1.45076
3.90424	1.47225
3.9013	1.51513
3.89837	1.4286
3.89544	1.34233
3.89252	1.36534
3.8896	1.3667
3.88668	1.37527
3.88377	1.44181
3.88086	1.47879
3.87796	1.45871
3.87506	1.44
3.87217	1.36024
3.86928	1.34969
3.86639	1.4983
3.86351	1.51543
3.86064	1.42802
3.85776	1.42612
3.8549	1.4343
3.85203	1.40253
3.84917	1.47043
3.84631	1.54945
3.84346	1.54585
3.84062	1.48058
3.83777	1.41816
3.83494	1.41097
3.8321	1.45375
3.82927	1.4826
3.82644	1.47955
3.82362	1.39757
3.82081	1.3269
3.81799	1.39478
3.81518	1.47837
3.81238	1.4653
3.80958	1.45272
3.80678	1.41749
3.80399	1.43217
3.8012	1.37623
3.79841	1.37289
3.79563	1.44072
3.79286	1.4552
3.79008	1.51956
3.78731	1.55205
3.78455	1.43263
3.78179	1.3934
3.77903	1.51649
3.77628	1.54909
3.77353	1.49967
3.77079	1.47147
3.76805	1.52891
3.76531	1.61253
3.76258	1.60193
3.75985	1.52624
3.75713	1.49839
3.7544	1.4472
3.75169	1.42699
3.74898	1.52138
3.74627	1.54271
3.74356	1.46576
3.74086	1.47633
3.73816	1.50548
3.73547	1.53874
3.73278	1.64292
3.7301	1.62378
3.72741	1.53619
3.72474	1.54278
3.72206	1.58786
3.71939	1.55876
3.71673	1.64031
3.71406	1.67972
3.71141	1.61275
3.70875	1.52436
3.7061	1.48373
3.70345	1.44882
3.70081	1.51058
3.69817	1.55525
3.69553	1.56872
3.6929	1.54771
3.69027	1.5571
3.68765	1.50964
3.68503	1.47857
3.68241	1.4621
3.6798	1.53128
3.67719	1.68396
3.67458	1.63818
3.67198	1.51051
3.66938	1.49159
3.66678	1.49621
3.66419	1.56887
3.66161	1.588
3.65902	1.6053
3.65644	1.623
3.65387	1.61713
3.65129	1.6562
3.64872	1.62208
3.64616	1.60679
3.64359	1.65402
3.64103	1.63694
3.63848	1.53757
3.63593	1.56003
3.63338	1.57624
3.63084	1.57923
3.6283	1.52382
3.62576	1.44934
3.62322	1.50506
3.62069	1.62316
3.61817	1.61583
3.61564	1.60719
3.61312	1.61822
3.61061	1.64782
3.6081	1.63993
3.60559	1.58638
3.60308	1.53903
3.60058	1.53948
3.59808	1.60724
3.59558	1.6093
3.59309	1.60987
3.59061	1.59757
3.58812	1.67178
3.58564	1.69735
3.58316	1.71853
3.58069	1.70614
3.57822	1.56187
3.57575	1.50629
3.57328	1.64008
3.57082	1.73464
3.56836	1.73161
3.56591	1.67516
3.56346	1.63413
3.56101	1.67414
3.55857	1.71482
3.55613	1.73902
3.55369	1.74287
3.55126	1.7492
3.54883	1.67525
3.5464	1.61755
3.54397	1.59026
3.54155	1.50714
3.53914	1.53395
3.53672	1.58184
3.53431	1.58394
3.5319	1.67125
3.5295	1.73403
3.5271	1.65017
3.5247	1.56064
3.52231	1.604
3.51991	1.67493
3.51753	1.70655
3.51514	1.66711
3.51276	1.65199
3.51038	1.65205
3.50801	1.60114
3.50563	1.58751
3.50327	1.69417
3.5009	1.69873
3.49854	1.64221
3.49618	1.65231
3.49382	1.60914
3.49147	1.54814
3.48912	1.66304
3.48677	1.82411
3.48443	1.91419
3.48209	1.75734
3.47975	1.59212
3.47742	1.63422
3.47509	1.74536
3.47276	1.75695
3.47044	1.68002
3.46812	1.70505
3.4658	1.77596
3.46348	1.69223
3.46117	1.50633
3.45886	1.57112
3.45656	1.73791
3.45425	1.73305
3.45195	1.71308
3.44966	1.71623
3.44736	1.75067
3.44507	1.77347
3.44279	1.7706
3.4405	1.84963
3.43822	1.86057
3.43594	1.75113
3.43367	1.77928
3.43139	1.84525
3.42912	1.73219
3.42686	1.66021
3.42459	1.76048
3.42233	1.7649
3.42007	1.67139
3.41782	1.72832
3.41557	1.80457
3.41332	1.72589
3.41108	1.67642
3.40883	1.72236
3.40659	1.74673
3.40435	1.69043
3.40212	1.68173
3.39989	1.8187
3.39766	1.89117
3.39544	1.85708
3.39322	1.82702
3.391	1.74702
3.38878	1.64309
3.38657	1.66335
3.38436	1.78711
3.38215	1.79281
3.37994	1.76049
3.37774	1.82915
3.37554	1.87276
3.37335	1.83755
3.37115	1.83741
3.36896	1.71453
3.36678	1.66306
3.36459	1.71075
3.36241	1.73965
3.36023	1.72874
3.35805	1.77095
3.35588	1.79479
3.35371	1.77885
3.35154	1.79191
3.34938	1.7981
3.34721	1.78554
3.34505	1.78917
3.3429	1.81142
3.34074	1.78409
3.33859	1.75945
3.33644	1.79893
3.3343	1.84937
3.33215	1.88287
3.33001	1.80308
3.32788	1.71034
3.32574	1.68546
3.32361	1.65184
3.32148	1.73159
3.31936	1.83689
3.31723	1.86099
3.31511	1.7403
3.31299	1.63602
3.31088	1.778
3.30876	1.84113
3.30665	1.83413
3.30455	1.83715
3.30244	1.86115
3.30034	1.79602
3.29824	1.6915
3.29614	1.67923
3.29405	1.67293
3.29196	1.69252
3.28987	1.81617
3.28778	1.73204
3.2857	1.66091
3.28362	1.75735
3.28154	1.74571
3.27946	1.62184
3.27739	1.60453
3.27532	1.70394
3.27325	1.75056
3.27119	1.62881
3.26913	1.49189
3.26707	1.46145
3.26501	1.51821
3.26295	1.63772
3.2609	1.72631
3.25885	1.6517
3.2568	1.56571
3.25476	1.60945
3.25272	1.58926
3.25068	1.56021
3.24864	1.55418
3.24661	1.55978
3.24458	1.47032
3.24255	1.45783
3.24052	1.55286
3.2385	1.64866
3.23648	1.55698
3.23446	1.58854
3.23244	1.69165
3.23043	1.62094
3.22841	1.59699
3.2264	1.57262
3.2244	1.49247
3.22239	1.43768
3.22039	1.41095
3.21839	1.53074
3.2164	1.49358
3.2144	1.40217
3.21241	1.41426
3.21042	1.42389
3.20844	1.50538
3.20645	1.62464
3.20447	1.59645
3.20249	1.50718
3.20051	1.47589
3.19854	1.52978
3.19657	1.56844
3.1946	1.49414
3.19263	1.40986
3.19067	1.41303
3.1887	1.42927
3.18674	1.45626
3.18479	1.3679
3.18283	1.37476
3.18088	1.5061
3.17893	1.52834
3.17698	1.49954
3.17504	1.46079
3.17309	1.41686
3.17115	1.38193
3.16921	1.446
3.16728	1.54337
3.16534	1.52987
3.16341	1.56357
3.16148	1.60717
3.15956	1.62777
3.15763	1.64526
3.15571	1.59617
3.15379	1.50263
3.15187	1.4677
3.14996	1.52435
3.14805	1.46631
3.14614	1.36135
3.14423	1.33922
3.14232	1.35469
3.14042	1.40349
3.13852	1.45878
3.13662	1.38814
3.13472	1.37296
3.13283	1.40413
3.13094	1.38753
3.12905	1.39195
3.12716	1.46368
3.12528	1.59193
3.12339	1.64758
3.12151	1.51368
3.11964	1.37363
3.11776	1.29293
3.11589	1.24248
3.11401	1.30092
3.11214	1.48712
3.11028	1.57362
3.10841	1.54498
3.10655	1.50176
3.10469	1.33429
3.10283	1.29929
3.10098	1.42007
3.09912	1.38761
3.09727	1.3255
3.09542	1.3492
3.09358	1.33953
3.09173	1.38781
3.08989	1.42758
3.08805	1.34527
3.08621	1.37806
3.08437	1.47279
3.08254	1.38585
3.08071	1.355
3.07888	1.50584
3.07705	1.51502
3.07523	1.47579
3.0734	1.47103
3.07158	1.49944
3.06977	1.53476
3.06795	1.47574
3.06613	1.40703
3.06432	1.38856
3.06251	1.44381
3.0607	1.45116
3.0589	1.48295
3.0571	1.5016
3.05529	1.4735
3.05349	1.54305
3.0517	1.54845
3.0499	1.57726
3.04811	1.5532
3.04632	1.46982
3.04453	1.41337
3.04274	1.33425
3.04096	1.35931
3.03918	1.48037
3.0374	1.40898
3.03562	1.5195
3.03384	1.64281
3.03207	1.62605
3.03029	1.60221
3.02852	1.47919
3.02676	1.41649
3.02499	1.34741
3.02323	1.34793
3.02146	1.39469
3.0197	1.45255
3.01795	1.51925
3.01619	1.36728
3.01444	1.41723
3.01269	1.69995
3.01094	1.74125
3.00919	1.62007
3.00744	1.46035
3.0057	1.49168
3.00396	1.54607
3.00222	1.55292
3.00048	1.51656
2.99875	1.56074
2.99701	1.53364
2.99528	1.54355
2.99355	1.58957
2.99183	1.43112
2.9901	1.47783
2.98838	1.68366
2.98666	1.7143
2.98494	1.71323
2.98322	1.57984
2.9815	1.50624
2.97979	1.57837
2.97808	1.7117
2.97637	1.70958
2.97466	1.5304
2.97295	1.61023
2.97125	1.62802
2.96955	1.46487
2.96785	1.51107
2.96615	1.62212
2.96446	1.46665
2.96276	1.37487
2.96107	1.57144
2.95938	1.75124
2.95769	1.76698
2.95601	1.69867
2.95432	1.75207
2.95264	1.8327
2.95096	1.77406
2.94928	1.84253
2.9476	1.75993
2.94593	1.53346
2.94425	1.49195
2.94258	1.61062
2.94092	1.74665
2.93925	1.7946
2.93758	1.80829
2.93592	1.77521
2.93426	1.73135
2.9326	1.72329
2.93094	1.73837
2.92928	1.81826
2.92763	1.87198
2.92598	1.84237
2.92433	1.92592
2.92268	2.08192
2.92103	2.09732
2.91939	2.05568
2.91775	2.09329
2.9161	2.11044
2.91447	2.0027
2.91283	1.94979
2.91119	1.95576
2.90956	1.90728
2.90793	1.88649
2.9063	2.04726
2.90467	2.13582
2.90304	2.25204
2.90142	2.41712
2.89979	2.51102
2.89817	2.4884
2.89656	2.34899
2.89494	2.33583
2.89332	2.42111
2.89171	2.58036
2.8901	2.53792
2.88849	2.37224
2.88688	2.28577
2.88527	2.3271
2.88367	2.30906
2.88206	2.1553
2.88046	2.17312
2.87886	2.27841
2.87727	2.11408
2.87567	2.09963
2.87408	2.10769
2.87248	1.93838
2.87089	1.79308
2.8693	1.7574
2.86772	1.66268
2.86613	1.59592
2.86455	1.68406
2.86297	1.68251
2.86139	1.62787
2.85981	1.65219
2.85823	1.69162
2.85666	1.58992
2.85508	1.45998
2.85351	1.33425
2.85194	1.28639
2.85038	1.46738
2.84881	1.47647
2.84724	1.24823
2.84568	1.21138
2.84412	1.23691
2.84256	1.28739
2.841	1.38338
2.83945	1.33604
2.83789	1.28727
2.83634	1.19414
2.83479	1.09665
2.83324	1.01541
2.83169	1.07454
2.83015	1.16273
2.82861	1.21965
2.82706	1.07405
2.82552	1.09177
2.82398	1.16527
2.82245	1.15156
2.82091	0.987152
2.81938	0.91095
2.81784	0.954717
2.81631	1.01846
2.81479	1.08546
2.81326	1.10766
2.81173	1.10241
2.81021	1.01836
2.80869	0.957808
2.80716	0.928372
2.80565	1.05445
2.80413	1.18885
2.80261	1.09952
2.8011	1.00718
2.79959	1.03775
2.79808	1.14442
2.79657	1.09706
2.79506	1.00514
2.79355	1.10589
2.79205	1.07384
2.79055	1.04827
2.78904	1.17686
2.78754	1.0741
2.78605	1.06316
2.78455	1.26429
2.78306	1.26762
2.78156	1.10273
2.78007	1.13146
2.77858	1.27198
2.77709	1.18363
2.77561	1.08289
2.77412	1.13351
2.77264	1.1919
2.77116	1.20614
2.76968	1.22923
2.7682	1.29156
2.76672	1.3726
2.76524	1.44266
2.76377	1.57433
2.7623	1.48225
2.76083	1.40346
2.75936	1.30918
2.75789	1.18525
2.75642	1.20023
2.75496	1.35659
2.7535	1.39761
2.75203	1.43005
2.75057	1.35864
2.74912	1.25057
2.74766	1.16985
2.7462	1.10404
2.74475	1.22587
2.7433	1.38078
2.74185	1.52467
2.7404	1.54448
2.73895	1.49895
2.7375	1.46612
2.73606	1.45759
2.73462	1.42724
2.73318	1.35986
2.73174	1.32302
2.7303	1.46939
2.72886	1.5935
2.72742	1.5512
2.72599	1.51539
2.72456	1.54266
2.72313	1.56389
2.7217	1.78517
2.72027	1.85131
2.71884	1.70086
2.71742	1.73843
2.71599	1.75725
2.71457	1.63755
2.71315	1.66774
2.71173	1.8357
2.71032	1.88544
2.7089	1.78913
2.70748	1.7666
2.70607	1.89459
2.70466	1.96263
2.70325	1.97277
2.70184	2.01988
2.70043	1.9191
2.69903	1.82351
2.69762	1.87261
2.69622	1.91069
2.69482	2.07933
2.69342	2.28944
2.69202	2.25576
2.69062	2.06534
2.68923	1.99013
2.68783	1.96718
2.68644	1.98911
2.68505	2.03352
2.68366	2.09057
2.68227	2.13067
2.68089	2.25794
2.6795	2.41498
2.67812	2.30902
2.67673	2.26071
2.67535	2.2151
2.67397	2.24021
2.6726	2.26716
2.67122	2.37303
2.66984	2.43455
2.66847	2.41904
2.6671	2.43553
2.66572	2.42633
2.66435	2.39134
2.66299	2.33735
2.66162	2.31225
2.66025	2.37206
2.65889	2.43776
2.65753	2.39663
2.65616	2.40797
2.65481	2.4446
2.65345	2.6679
2.65209	2.63099
2.65073	2.41392
2.64938	2.45727
2.64803	2.52774
2.64667	2.3924
2.64532	2.39848
2.64397	2.51813
2.64263	2.50237
2.64128	2.43324
2.63994	2.44198
2.63859	2.46153
2.63725	2.62987
2.63591	2.71559
2.63457	2.63356
2.63323	2.52063
2.6319	2.56061
2.63056	2.58383
2.62923	2.65932
2.62789	2.78057
2.62656	2.81188
2.62523	2.85036
2.6239	2.65519
2.62258	2.58092
2.62125	2.69264
2.61993	2.79949
2.6186	2.90994
2.61728	2.95534
2.61596	2.91034
2.61464	2.85699
2.61332	2.69568
2.61201	2.53836
2.61069	2.65901
2.60938	2.75571
2.60807	2.82353
2.60675	3.07289
2.60544	3.0861
2.60414	2.87882
2.60283	3.04478
2.60152	3.18435
2.60022	3.09706
2.59891	2.99984
2.59761	2.95428
2.59631	3.01277
2.59501	3.16776
2.59371	3.12746
2.59242	3.05443
2.59112	3.02002
2.58983	3.09139
2.58853	3.12605
2.58724	2.96516
2.58595	2.92367
2.58466	2.96855
2.58338	2.96577
2.58209	3.08174
2.5808	3.22256
2.57952	3.27673
2.57824	3.22387
2.57695	3.14162
2.57567	3.17988
2.5744	3.1932
2.57312	3.08426
2.57184	3.11098
2.57057	3.27703
2.56929	3.29652
2.56802	3.29911
2.56675	3.36387
2.56548	3.31277
2.56421	3.33362
2.56294	3.36157
2.56168	3.34129
2.56041	3.43248
2.55915	3.4061
2.55789	3.23232
2.55662	3.21123
2.55536	3.34463
2.5541	3.43475
2.55285	3.39774
2.55159	3.31356
2.55034	3.39066
2.54908	3.53511
2.54783	3.53941
2.54658	3.38374
2.54533	3.28793
2.54408	3.43786
2.54283	3.58619
2.54159	3.52245
2.54034	3.51079
2.5391	3.57141
2.53785	3.46934
2.53661	3.48884
2.53537	3.64229
2.53413	3.64962
2.53289	3.47896
2.53166	3.53909
2.53042	3.66618
2.52919	3.65929
2.52795	3.60045
2.52672	3.60634
2.52549	3.79058
2.52426	3.77903
2.52303	3.59023
2.52181	3.63497
2.52058	3.78777
2.51936	3.79182
2.51813	3.76045
2.51691	3.70803
2.51569	3.59725
2.51447	3.58445
2.51325	3.74533
2.51203	3.82182
2.51082	3.795
2.5096	3.80823
2.50839	3.77242
2.50717	3.73353
2.50596	3.76307
2.50475	3.77994
2.50354	3.77423
2.50233	3.81998
2.50113	3.80459
2.49992	3.86293
2.49872	3.88893
2.49751	3.8021
2.49631	3.78675
2.49511	3.76153
2.49391	3.70586
2.49271	3.7391
2.49151	3.75277
2.49031	3.75292
2.48912	3.78321
2.48792	3.92873
2.48673	3.89482
2.48554	3.80912
2.48435	3.86939
2.48316	3.80874
2.48197	3.78589
2.48078	3.81196
2.4796	3.75784
2.47841	3.73947
2.47723	3.70639
2.47604	3.76724
2.47486	3.83527
2.47368	3.75919
2.4725	3.8573
2.47132	3.9348
2.47014	3.95059
2.46897	3.89647
2.46779	3.77399
2.46662	3.78461
2.46545	3.92777
2.46427	3.97694
2.4631	3.96336
2.46193	3.96876
2.46077	3.9046
2.4596	3.7544
2.45843	3.74799
2.45727	3.73329
2.4561	3.80365
2.45494	3.87064
2.45378	3.87551
2.45262	3.95693
2.45146	3.95005
2.4503	3.9297
2.44914	3.85919
2.44799	3.80983
2.44683	3.69368
2.44568	3.68045
2.44452	3.84295
2.44337	4.00113
2.44222	3.98533
2.44107	3.95357
2.43992	3.94894
2.43877	3.89415
2.43763	3.80215
2.43648	3.75347
2.43534	3.81604
2.43419	3.98787
2.43305	4.01103
2.43191	3.9012
2.43077	3.78687
2.42963	3.80036
2.42849	3.88147
2.42736	3.9608
2.42622	4.11592
2.42509	4.15407
2.42395	4.1568
2.42282	4.12309
2.42169	4.02823
2.42056	3.94062
2.41943	3.91719
2.4183	3.80383
2.41717	3.78585
2.41605	3.83577
2.41492	3.86749
2.4138	3.90788
2.41267	3.94044
2.41155	4.03258
2.41043	3.954
2.40931	3.83928
2.40819	3.9021
2.40707	4.06721
2.40595	4.10321
2.40484	4.00516
2.40372	3.93714
2.40261	4.01072
2.4015	4.09348
2.40039	4.079
2.39928	4.16751
2.39817	4.09771
2.39706	3.99542
2.39595	4.0057
2.39484	3.9218
2.39374	3.90045
2.39263	3.93412
2.39153	3.89209
2.39043	3.91845
2.38932	3.8867
2.38822	3.9419
2.38712	4.09868
2.38603	4.13713
2.38493	4.11915
2.38383	4.12548
2.38274	4.14001
2.38164	4.28061
2.38055	4.24717
2.37946	4.30334
2.37836	4.31558
2.37727	4.18819
2.37618	4.10762
2.3751	4.10295
2.37401	4.19048
2.37292	4.3332
2.37184	4.57968
2.37075	4.64308
2.36967	4.55609
2.36859	4.57778
2.3675	4.61019
2.36642	4.6646
2.36534	4.7616
2.36427	4.79417
2.36319	4.80113
2.36211	4.75955
2.36104	4.8351
2.35996	4.8161
2.35889	4.81065
2.35781	4.97229
2.35674	5.03797
2.35567	5.03632
2.3546	5.13095
2.35353	5.11241
2.35247	5.05159
2.3514	5.00533
2.35033	4.98872
2.34927	5.10851
2.3482	5.17183
2.34714	5.22634
2.34608	5.29794
2.34502	5.34658
2.34396	5.31966
2.3429	5.32478
2.34184	5.18774
2.34078	5.09331
2.33973	5.17356
2.33867	5.36161
2.33762	5.52045
2.33656	5.64805
2.33551	5.56548
2.33446	5.48413
2.33341	5.57568
2.33236	5.71502
2.33131	5.54792
2.33026	5.42375
2.32922	5.40561
2.32817	5.50172
2.32712	5.46442
2.32608	5.5318
2.32504	5.69446
2.324	5.76519
2.32295	5.66902
2.32191	5.82077
2.32087	6.00951
2.31984	5.94864
2.3188	5.71734
2.31776	5.50209
2.31673	5.7776
2.31569	5.91404
2.31466	5.80806
2.31362	5.99851
2.31259	6.04385
2.31156	5.95235
2.31053	6.03267
2.3095	6.13741
2.30847	6.31274
2.30745	6.3437
2.30642	6.18456
2.3054	6.16595
2.30437	6.15204
2.30335	6.26128
2.30232	6.39352
2.3013	6.35213
2.30028	6.2008
2.29926	6.10918
2.29824	6.1579
2.29722	6.3417
2.29621	6.35386
2.29519	6.29518
2.29417	6.36514
2.29316	6.46281
2.29215	6.4593
2.29113	6.46051
2.29012	6.62942
2.28911	6.82506
2.2881	6.78353
2.28709	6.6068
2.28608	6.58437
2.28507	6.70935
2.28407	6.70602
2.28306	6.55595
2.28206	6.47786
2.28105	6.65329
2.28005	6.749
2.27905	6.82578
2.27805	6.81262
2.27705	6.73983
2.27605	6.72309
2.27505	6.67971
2.27405	6.71697
2.27305	6.87401
2.27206	6.80544
2.27106	6.60349
2.27007	6.74664
2.26907	6.93261
2.26808	7.008
2.26709	6.95043
2.2661	6.91403
2.26511	6.93841
2.26412	6.82398
2.26313	6.93102
2.26214	6.95941
2.26116	6.96022
2.26017	7.17461
2.25919	7.08101
2.2582	6.9174
2.25722	7.02268
2.25624	7.09942
2.25526	6.89334
2.25428	6.7689
2.2533	6.93938
2.25232	7.0036
2.25134	7.0606
2.25036	7.15159
2.24939	7.07351
2.24841	7.06375
2.24744	7.1769
2.24646	7.29119
2.24549	7.29237
2.24452	7.15913
2.24355	7.15046
2.24257	7.11862
2.24161	6.98478
2.24064	6.9455
2.23967	6.88762
2.2387	6.86157
2.23774	6.98419
2.23677	6.95842
2.23581	6.83232
2.23484	6.98913
2.23388	7.08158
2.23292	7.03271
2.23196	6.98655
2.231	6.91791
2.23004	6.85224
2.22908	6.83614
2.22812	6.75427
2.22716	6.63312
2.22621	6.59685
2.22525	6.53919
2.2243	6.58372
2.22334	6.70841
2.22239	6.8002
2.22144	6.91892
2.22049	6.84391
2.21953	6.68025
2.21859	6.62615
2.21764	6.81763
2.21669	6.92003
2.21574	6.91404
2.21479	6.73732
2.21385	6.72891
2.2129	6.89069
2.21196	6.89923
2.21102	6.85475
2.21007	6.96757
2.20913	6.94969
2.20819	6.78075
2.20725	6.70181
2.20631	7.0026
2.20537	7.23132
2.20444	7.18882
2.2035	7.15314
2.20256	7.03785
2.20163	6.96294
2.20069	6.81854
2.19976	6.84022
2.19883	7.03329
2.19789	6.97166
2.19696	6.89891
2.19603	6.86314
2.1951	7.00903
2.19417	7.23178
2.19325	7.26359
2.19232	7.00055
2.19139	6.98139
2.19047	7.15186
2.18954	7.21783
2.18862	7.20779
2.18769	7.17204
2.18677	7.17275
2.18585	7.17634
2.18493	6.94451
2.18401	6.83413
2.18309	6.9973
2.18217	7.12136
2.18125	7.21881
2.18033	7.15851
2.17942	7.17199
2.1785	7.26135
2.17759	7.15125
2.17667	7.00612
2.17576	7.09028
2.17485	7.32739
2.17393	7.35085
2.17302	7.27194
2.17211	7.34475
2.1712	7.40938
2.17029	7.23109
2.16939	7.01766
2.16848	7.15593
2.16757	7.24565
2.16667	7.19609
2.16576	7.00579
2.16486	7.06177
2.16395	7.27435
2.16305	7.18148
2.16215	7.00728
2.16125	7.00617
2.16035	7.12046
2.15945	7.41291
2.15855	7.49508
2.15765	7.22107
2.15675	7.2168
2.15586	7.25194
2.15496	7.06275
2.15406	7.08266
2.15317	7.24729
2.15228	7.18589
2.15138	7.21422
2.15049	7.28392
2.1496	7.27233
2.14871	7.19487
2.14782	7.14486
2.14693	7.14948
2.14604	7.02808
2.14515	6.92716
2.14427	7.06939
2.14338	7.08304
2.14249	7.00309
2.14161	6.93488
2.14072	7.24117
2.13984	7.18505
2.13896	7.10649
2.13808	7.21504
2.13719	7.20173
2.13631	7.15783
2.13543	7.09783
2.13455	7.12823
2.13368	7.05995
2.1328	6.89172
2.13192	6.81554
2.13105	6.9161
2.13017	7.14628
2.1293	6.97079
2.12842	6.97558
2.12755	7.19165
2.12668	7.06823
2.1258	6.96521
2.12493	7.03474
2.12406	6.98374
2.12319	6.9107
2.12232	6.92744
2.12145	6.95924
2.12059	7.19653
2.11972	7.09574
2.11885	6.69856
2.11799	6.58518
2.11712	6.56118
2.11626	6.57425
2.1154	6.58429
2.11453	6.95114
2.11367	7.05446
2.11281	6.72481
2.11195	6.45929
2.11109	6.47021
2.11023	6.81309
2.10937	6.97477
2.10851	6.85941
2.10766	6.54298
2.1068	6.33955
2.10594	6.51147
2.10509	6.33744
2.10423	6.35646
2.10338	6.3473
2.10253	6.46585
2.10168	6.65297
2.10082	6.59918
2.09997	6.33631
2.09912	6.14519
2.09827	6.23242
2.09742	6.39724
2.09658	6.24428
2.09573	6.21833
2.09488	6.07612
2.09404	6.09998
2.09319	6.42888
2.09235	6.55092
2.0915	6.50844
2.09066	6.1935
2.08982	5.74481
2.08897	5.87503
2.08813	6.27111
2.08729	6.14891
2.08645	5.72434
2.08561	5.89721
2.08477	6.2694
2.08394	6.24526
2.0831	6.10334
2.08226	6.18647
2.08143	6.23138
2.08059	6.09164
2.07976	5.91794
2.07892	6.02201
2.07809	6.14815
2.07726	6.05607
2.07643	5.75875
2.07559	5.0978
2.07476	5.04926
2.07393	5.98733
2.0731	6.11337
2.07228	5.4377
2.07145	5.27954
2.07062	5.53745
2.06979	5.55347
2.06897	5.44232
2.06814	5.57947
2.06732	5.8646
2.06649	5.83956
2.06567	5.43458
2.06485	5.39323
2.06403	5.39492
2.0632	5.43121
2.06238	5.33696
2.06156	5.0426
2.06074	5.43058
2.05993	5.78498
2.05911	5.43352
2.05829	5.25201
2.05747	5.30127
2.05666	5.2509
2.05584	5.27398
2.05503	5.5219
2.05421	5.68304
2.0534	5.63087
2.05259	5.39667
2.05177	5.43993
2.05096	5.60156
2.05015	5.79286
2.04934	5.59212
2.04853	5.05486
2.04772	5.05298
2.04691	5.28104
2.04611	5.30261
2.0453	5.46297
2.04449	5.49557
2.04369	5.32314
2.04288	5.49716
2.04208	5.66262
2.04127	5.4907
2.04047	5.55138
2.03967	5.62089
2.03886	5.45917
2.03806	5.36324
2.03726	5.26368
2.03646	5.1884
2.03566	5.42722
2.03486	5.52018
2.03407	5.52231
2.03327	5.46781
2.03247	5.20499
2.03167	5.05872
2.03088	5.38001
2.03008	5.8433
2.02929	5.85547
2.0285	5.86636
2.0277	5.6163
2.02691	5.54708
2.02612	5.7799
2.02533	5.79672
2.02453	5.56447
2.02374	5.73256
2.02295	6.10833
2.02217	5.95735
2.02138	5.76809
2.02059	5.89814
2.0198	6.06744
2.01902	6.12901
2.01823	6.1729
2.01744	6.04012
2.01666	5.93746
2.01588	5.95181
2.01509	6.13413
2.01431	6.17982
2.01353	6.12586
2.01275	6.15079
2.01196	6.25324
2.01118	6.41864
2.0104	6.45933
2.00963	6.42402
2.00885	6.64711
2.00807	6.40474
2.00729	6.14056
2.00651	6.18753
2.00574	6.34344
2.00496	6.43659
2.00419	6.44597
2.00341	6.2924
2.00264	6.22709
2.00187	6.24168
2.00109	6.30578
2.00032	6.4109
