Name: Vesicular Basalt
Type: Rock
Class: Igneous
Subclass:  Mafic 
Particle Size: Solid surface
Sample No.: Ward33.txt
Owner: JPL
Wavelength range:  VNIR SWIR IR 
Origin: Ward's Collection of American Rocks.  Sample locality - Tenderfoot Mountain, 1/4 mile north of Salida, Chaffee County, Colorado.
Collected by:  Ward's Natural Science
Description: A black, semi-glassy rock containing abundant vesicles lined
with a white crust of opaline material.  A few very small phenocrysts of
feldspar and augite are visible.
Geologic Age - Tertiary (probably Eocene).


Measurement: Hemispherical reflectance
First Column: X
Second Column: Y
X Units: Wavelength (micrometers)
Y Units: Reflectance (percent)
First X Value: 2.500
Last X Value: 0.400
Number of X Values: 2101
Additional information: None

2.500   8.251817
2.499   8.115799
2.498   8.116086
2.497   8.387062
2.496   7.796155
2.495   8.319036
2.494   8.128389
2.493   8.186646
2.492   8.231456
2.491   8.163415
2.490   7.983339
2.489   8.245218
2.488   8.022772
2.487   8.210612
2.486   8.013394
2.485   8.240619
2.484   8.018810
2.483   8.253507
2.482   8.156218
2.481   8.286704
2.480   8.065764
2.479   8.266358
2.478   7.915655
2.477   8.181481
2.476   7.976949
2.475   8.101878
2.474   8.166824
2.473   8.187935
2.472   7.943715
2.471   8.161070
2.470   8.035795
2.469   8.238009
2.468   8.065480
2.467   8.194994
2.466   8.086795
2.465   8.216738
2.464   8.011195
2.463   8.216410
2.462   8.053434
2.461   8.113051
2.460   8.175153
2.459   8.257667
2.458   8.098615
2.457   8.210170
2.456   8.116837
2.455   8.102030
2.454   8.087369
2.453   8.237578
2.452   8.147303
2.451   8.183940
2.450   8.103390
2.449   8.176673
2.448   8.201808
2.447   8.190631
2.446   8.084445
2.445   8.176663
2.444   8.156663
2.443   8.199979
2.442   8.147879
2.441   8.253253
2.440   8.053830
2.439   8.282377
2.438   8.075356
2.437   8.236255
2.436   8.096614
2.435   8.211975
2.434   8.168986
2.433   8.221644
2.432   8.089424
2.431   8.317042
2.430   8.177120
2.429   8.232400
2.428   8.172670
2.427   8.257883
2.426   8.211288
2.425   8.154869
2.424   8.091245
2.423   8.164697
2.422   8.055507
2.421   8.242189
2.420   8.139134
2.419   8.193248
2.418   8.187962
2.417   8.204923
2.416   8.155163
2.415   8.166367
2.414   8.122134
2.413   8.185944
2.412   8.071429
2.411   8.180611
2.410   8.128124
2.409   8.135713
2.408   8.060171
2.407   8.131179
2.406   8.086430
2.405   8.189788
2.404   8.028113
2.403   8.101997
2.402   8.083862
2.401   8.092597
2.400   8.075538
2.399   8.090959
2.398   8.089284
2.397   8.131981
2.396   8.072002
2.395   8.094886
2.394   8.124563
2.393   8.156081
2.392   8.031349
2.391   8.128989
2.390   8.118441
2.389   8.138840
2.388   8.113426
2.387   8.103571
2.386   8.050498
2.385   8.082994
2.384   8.134624
2.383   8.139174
2.382   8.104950
2.381   8.105903
2.380   8.065614
2.379   8.074915
2.378   8.040583
2.377   8.137353
2.376   8.133281
2.375   8.108828
2.374   8.093162
2.373   8.163439
2.372   8.130555
2.371   8.083816
2.370   8.074823
2.369   8.140598
2.368   8.088884
2.367   8.040207
2.366   8.108747
2.365   8.127507
2.364   8.083399
2.363   8.116728
2.362   8.109782
2.361   8.081089
2.360   8.136418
2.359   8.108443
2.358   8.101744
2.357   8.097099
2.356   8.045795
2.355   8.048530
2.354   8.016480
2.353   8.090607
2.352   8.127541
2.351   8.023283
2.350   8.035363
2.349   7.994140
2.348   7.967503
2.347   8.033766
2.346   8.033097
2.345   7.972444
2.344   8.008199
2.343   8.006130
2.342   8.016682
2.341   7.965744
2.340   7.970496
2.339   8.001511
2.338   8.002369
2.337   7.949984
2.336   8.002094
2.335   8.052543
2.334   8.021788
2.333   7.978490
2.332   7.987018
2.331   7.980725
2.330   8.030852
2.329   8.014105
2.328   8.019248
2.327   7.979507
2.326   8.007037
2.325   7.993017
2.324   8.026004
2.323   7.990352
2.322   8.017622
2.321   8.037153
2.320   8.075363
2.319   8.006859
2.318   7.995815
2.317   7.997052
2.316   8.067834
2.315   7.999492
2.314   8.045555
2.313   8.033317
2.312   8.069656
2.311   8.025381
2.310   8.053439
2.309   8.039464
2.308   8.038973
2.307   8.036963
2.306   8.144861
2.305   8.042482
2.304   8.100348
2.303   8.039342
2.302   8.079625
2.301   8.088335
2.300   8.143564
2.299   8.082356
2.298   8.131753
2.297   8.082650
2.296   8.140692
2.295   8.076019
2.294   8.132357
2.293   8.026614
2.292   8.098715
2.291   8.092540
2.290   8.147837
2.289   8.098751
2.288   8.138739
2.287   8.086136
2.286   8.223734
2.285   8.170129
2.284   8.194126
2.283   8.152973
2.282   8.274156
2.281   8.191518
2.280   8.256486
2.279   8.151916
2.278   8.231713
2.277   8.110515
2.276   8.233159
2.275   8.198702
2.274   8.241238
2.273   8.128882
2.272   8.170500
2.271   8.218412
2.270   8.182257
2.269   8.161000
2.268   8.288189
2.267   8.172694
2.266   8.249797
2.265   8.194211
2.264   8.256586
2.263   8.169225
2.262   8.241233
2.261   8.161586
2.260   8.292671
2.259   8.207078
2.258   8.308236
2.257   8.189924
2.256   8.280008
2.255   8.252164
2.254   8.267324
2.253   8.249892
2.252   8.337103
2.251   8.178402
2.250   8.271946
2.249   8.299150
2.248   8.320541
2.247   8.194016
2.246   8.291343
2.245   8.217363
2.244   8.308301
2.243   8.258522
2.242   8.369953
2.241   8.244145
2.240   8.351588
2.239   8.261800
2.238   8.345357
2.237   8.278538
2.236   8.444103
2.235   8.257255
2.234   8.307541
2.233   8.274487
2.232   8.489798
2.231   8.322096
2.230   8.390111
2.229   8.381190
2.228   8.506655
2.227   8.351228
2.226   8.514245
2.225   8.354514
2.224   8.584259
2.223   8.320141
2.222   8.518696
2.221   8.395977
2.220   8.572317
2.219   8.405139
2.218   8.486562
2.217   8.363665
2.216   8.545560
2.215   8.425955
2.214   8.589192
2.213   8.503572
2.212   8.614021
2.211   8.338627
2.210   8.636692
2.209   8.500368
2.208   8.565581
2.207   8.554371
2.206   8.513555
2.205   8.506271
2.204   8.563904
2.203   8.469577
2.202   8.695176
2.201   8.433429
2.200   8.670573
2.199   8.533343
2.198   8.557063
2.197   8.594918
2.196   8.665048
2.195   8.489546
2.194   8.668972
2.193   8.526912
2.192   8.635777
2.191   8.612030
2.190   8.594219
2.189   8.633323
2.188   8.693595
2.187   8.625738
2.186   8.662187
2.185   8.620893
2.184   8.641024
2.183   8.591875
2.182   8.719475
2.181   8.590850
2.180   8.711495
2.179   8.662648
2.178   8.695313
2.177   8.696863
2.176   8.731728
2.175   8.666117
2.174   8.683322
2.173   8.746915
2.172   8.868900
2.171   8.727642
2.170   8.757961
2.169   8.680043
2.168   8.758656
2.167   8.732621
2.166   8.807839
2.165   8.733450
2.164   8.763327
2.163   8.732799
2.162   8.792991
2.161   8.803781
2.160   8.773410
2.159   8.812893
2.158   8.782857
2.157   8.776026
2.156   8.844728
2.155   8.821562
2.154   8.862517
2.153   8.895079
2.152   8.892903
2.151   8.846403
2.150   8.898088
2.149   8.833610
2.148   8.924842
2.147   8.871965
2.146   8.875122
2.145   8.816073
2.144   8.893912
2.143   8.864008
2.142   8.899939
2.141   8.869026
2.140   8.939769
2.139   8.894153
2.138   8.854143
2.137   8.866203
2.136   8.867544
2.135   8.823061
2.134   8.912213
2.133   8.851510
2.132   8.898246
2.131   8.863455
2.130   8.892030
2.129   8.827272
2.128   8.897747
2.127   8.806539
2.126   8.856391
2.125   8.824209
2.124   8.861641
2.123   8.842086
2.122   8.898246
2.121   8.808892
2.120   8.807497
2.119   8.776420
2.118   8.872152
2.117   8.827266
2.116   8.798027
2.115   8.737028
2.114   8.864934
2.113   8.784532
2.112   8.804750
2.111   8.799897
2.110   8.775589
2.109   8.724637
2.108   8.800543
2.107   8.728303
2.106   8.793723
2.105   8.798247
2.104   8.763216
2.103   8.740285
2.102   8.810897
2.101   8.801516
2.100   8.791627
2.099   8.782709
2.098   8.774293
2.097   8.786897
2.096   8.801440
2.095   8.747661
2.094   8.771204
2.093   8.781564
2.092   8.810112
2.091   8.824804
2.090   8.798342
2.089   8.760141
2.088   8.813151
2.087   8.815204
2.086   8.863612
2.085   8.799660
2.084   8.814007
2.083   8.853142
2.082   8.811286
2.081   8.819686
2.080   8.909707
2.079   8.903020
2.078   8.831420
2.077   8.816919
2.076   8.860282
2.075   8.866070
2.074   8.865627
2.073   8.820557
2.072   8.780490
2.071   8.793758
2.070   8.844658
2.069   8.903311
2.068   8.865780
2.067   8.840970
2.066   8.822678
2.065   8.890030
2.064   8.904884
2.063   8.862290
2.062   8.905439
2.061   8.890631
2.060   8.873107
2.059   8.914773
2.058   8.921461
2.057   8.915357
2.056   8.915130
2.055   8.927469
2.054   8.920091
2.053   8.943426
2.052   8.910043
2.051   8.911216
2.050   8.871382
2.049   8.818587
2.048   8.842116
2.047   8.933161
2.046   8.893260
2.045   8.907683
2.044   8.913605
2.043   8.929797
2.042   8.922450
2.041   8.940511
2.040   8.903155
2.039   8.942292
2.038   8.920573
2.037   8.949842
2.036   8.888901
2.035   8.927947
2.034   8.923698
2.033   8.960942
2.032   8.976992
2.031   8.967866
2.030   8.968638
2.029   8.913751
2.028   8.944509
2.027   9.026672
2.026   8.942022
2.025   8.986238
2.024   8.950645
2.023   8.956587
2.022   8.944579
2.021   8.962652
2.020   8.964195
2.019   8.962723
2.018   8.932745
2.017   8.906132
2.016   8.955266
2.015   8.941987
2.014   8.931564
2.013   8.949211
2.012   8.930414
2.011   8.988005
2.010   8.985160
2.009   8.992131
2.008   8.955500
2.007   8.996997
2.006   8.905900
2.005   8.961752
2.004   8.940529
2.003   8.984268
2.002   8.918304
2.001   8.977147
2.000   8.942836
1.999   9.003432
1.998   8.924799
1.997   9.019565
1.996   9.032525
1.995   8.998829
1.994   8.994494
1.993   8.987573
1.992   8.979272
1.991   8.969988
1.990   8.917841
1.989   9.014946
1.988   8.936785
1.987   9.000192
1.986   8.961654
1.985   9.035335
1.984   8.909112
1.983   9.007945
1.982   8.993633
1.981   9.004083
1.980   8.939350
1.979   9.022703
1.978   8.887865
1.977   8.997162
1.976   8.945332
1.975   8.995207
1.974   8.928554
1.973   9.039125
1.972   8.939880
1.971   8.979335
1.970   8.935007
1.969   8.991992
1.968   8.844771
1.967   8.989214
1.966   8.928822
1.965   9.009328
1.964   8.965601
1.963   8.983819
1.962   8.940789
1.961   9.069229
1.960   8.929751
1.959   8.975226
1.958   8.962085
1.957   9.085640
1.956   8.890041
1.955   8.947235
1.954   8.841131
1.953   9.052216
1.952   8.919722
1.951   9.069905
1.950   8.947473
1.949   9.044011
1.948   8.946419
1.947   9.042336
1.946   9.002994
1.945   9.102680
1.944   8.860884
1.943   9.006061
1.942   9.028662
1.941   9.076443
1.940   8.908524
1.939   9.008442
1.938   8.851202
1.937   9.067419
1.936   8.939346
1.935   9.006929
1.934   8.931854
1.933   9.112851
1.932   8.923499
1.931   9.115336
1.930   8.971152
1.929   9.046695
1.928   8.878802
1.927   9.152151
1.926   8.761420
1.925   9.126230
1.924   8.938085
1.923   9.076664
1.922   8.921826
1.921   9.032055
1.920   8.998494
1.919   9.087067
1.918   8.959789
1.917   9.113982
1.916   8.996645
1.915   9.075440
1.914   9.015656
1.913   9.024212
1.912   9.012322
1.911   9.094638
1.910   9.025752
1.909   9.076272
1.908   9.032558
1.907   9.162231
1.906   9.038428
1.905   9.146949
1.904   9.041365
1.903   9.181629
1.902   9.106558
1.901   9.218381
1.900   9.047637
1.899   9.226885
1.898   9.116594
1.897   9.162849
1.896   9.091216
1.895   9.279364
1.894   9.144996
1.893   9.289583
1.892   9.188586
1.891   9.270206
1.890   9.192963
1.889   9.284983
1.888   9.207177
1.887   9.242615
1.886   9.293401
1.885   9.305273
1.884   9.258001
1.883   9.355163
1.882   9.200665
1.881   9.311485
1.880   9.249653
1.879   9.270647
1.878   9.289822
1.877   9.333872
1.876   9.271969
1.875   9.330238
1.874   9.208811
1.873   9.404047
1.872   9.201212
1.871   9.312500
1.870   9.321018
1.869   9.325269
1.868   9.311723
1.867   9.362384
1.866   9.354201
1.865   9.442263
1.864   9.334144
1.863   9.429708
1.862   9.360348
1.861   9.364743
1.860   9.334377
1.859   9.339313
1.858   9.383105
1.857   9.417814
1.856   9.346538
1.855   9.394544
1.854   9.386007
1.853   9.411420
1.852   9.307581
1.851   9.411532
1.850   9.356131
1.849   9.428348
1.848   9.356731
1.847   9.401161
1.846   9.390425
1.845   9.396213
1.844   9.360880
1.843   9.323119
1.842   9.366580
1.841   9.428473
1.840   9.406877
1.839   9.435481
1.838   9.413852
1.837   9.403489
1.836   9.410099
1.835   9.442086
1.834   9.378008
1.833   9.457978
1.832   9.369447
1.831   9.444139
1.830   9.433412
1.829   9.389242
1.828   9.364113
1.827   9.459610
1.826   9.403954
1.825   9.401604
1.824   9.423561
1.823   9.442917
1.822   9.394005
1.821   9.452301
1.820   9.456521
1.819   9.413067
1.818   9.412086
1.817   9.495342
1.816   9.452090
1.815   9.439318
1.814   9.447892
1.813   9.463740
1.812   9.449179
1.811   9.493621
1.810   9.497084
1.809   9.460073
1.808   9.433700
1.807   9.490313
1.806   9.481409
1.805   9.445716
1.804   9.425356
1.803   9.499137
1.802   9.509366
1.801   9.497454
1.800   9.435234
1.799   9.419480
1.798   9.475385
1.797   9.494743
1.796   9.451564
1.795   9.506155
1.794   9.466880
1.793   9.454527
1.792   9.535527
1.791   9.526001
1.790   9.480616
1.789   9.512929
1.788   9.514722
1.787   9.497117
1.786   9.473041
1.785   9.468810
1.784   9.460078
1.783   9.404169
1.782   9.487853
1.781   9.534432
1.780   9.490534
1.779   9.437644
1.778   9.470782
1.777   9.516564
1.776   9.514769
1.775   9.484206
1.774   9.497863
1.773   9.511569
1.772   9.470860
1.771   9.471160
1.770   9.519367
1.769   9.502477
1.768   9.517784
1.767   9.470257
1.766   9.462305
1.765   9.481379
1.764   9.516908
1.763   9.480186
1.762   9.545057
1.761   9.505877
1.760   9.433388
1.759   9.491462
1.758   9.561477
1.757   9.508814
1.756   9.519782
1.755   9.487018
1.754   9.503608
1.753   9.468337
1.752   9.530089
1.751   9.500632
1.750   9.559173
1.749   9.535578
1.748   9.544954
1.747   9.526143
1.746   9.595937
1.745   9.500468
1.744   9.564248
1.743   9.553862
1.742   9.549923
1.741   9.418383
1.740   9.521454
1.739   9.550420
1.738   9.579650
1.737   9.548212
1.736   9.562476
1.735   9.512491
1.734   9.557547
1.733   9.511334
1.732   9.507764
1.731   9.542505
1.730   9.621370
1.729   9.569550
1.728   9.622120
1.727   9.514155
1.726   9.605130
1.725   9.588158
1.724   9.589039
1.723   9.526642
1.722   9.559865
1.721   9.518563
1.720   9.593377
1.719   9.554555
1.718   9.591652
1.717   9.542447
1.716   9.636342
1.715   9.589336
1.714   9.545653
1.713   9.508673
1.712   9.620916
1.711   9.542093
1.710   9.637974
1.709   9.562939
1.708   9.607480
1.707   9.515637
1.706   9.608774
1.705   9.534703
1.704   9.592279
1.703   9.566760
1.702   9.653710
1.701   9.537780
1.700   9.602054
1.699   9.558498
1.698   9.567339
1.697   9.537546
1.696   9.673361
1.695   9.578821
1.694   9.633764
1.693   9.588426
1.692   9.552550
1.691   9.557649
1.690   9.648259
1.689   9.550650
1.688   9.650232
1.687   9.531287
1.686   9.642917
1.685   9.572001
1.684   9.567744
1.683   9.521769
1.682   9.684474
1.681   9.554027
1.680   9.626757
1.679   9.571343
1.678   9.636310
1.677   9.566543
1.676   9.658938
1.675   9.576704
1.674   9.618347
1.673   9.545769
1.672   9.596048
1.671   9.533453
1.670   9.667745
1.669   9.812860
1.668   9.435258
1.667   9.666264
1.666   9.648886
1.665   9.561984
1.664   9.616182
1.663   9.598895
1.662   9.705240
1.661   9.619741
1.660   9.645202
1.659   9.616583
1.658   9.614908
1.657   9.573956
1.656   9.641310
1.655   9.683707
1.654   9.610637
1.653   9.609887
1.652   9.645485
1.651   9.560654
1.650   9.666908
1.649   9.577175
1.648   9.669017
1.647   9.593334
1.646   9.668735
1.645   9.668180
1.644   9.666162
1.643   9.573773
1.642   9.758630
1.641   9.430774
1.640   9.797949
1.639   9.608543
1.638   9.686416
1.637   9.606111
1.636   9.646482
1.635   9.682881
1.634   9.596903
1.633   9.612368
1.632   9.713747
1.631   9.612020
1.630   9.780111
1.629   9.631286
1.628   9.767927
1.627   9.587581
1.626   9.796627
1.625   9.632774
1.624   9.699707
1.623   9.573792
1.622   9.725681
1.621   9.647519
1.620   9.664805
1.619   9.581561
1.618   9.665386
1.617   9.695148
1.616   9.716737
1.615   9.659669
1.614   9.700867
1.613   9.663713
1.612   9.711271
1.611   9.612591
1.610   9.638436
1.609   9.640881
1.608   9.697490
1.607   9.645457
1.606   9.734064
1.605   9.618965
1.604   9.712022
1.603   9.629687
1.602   9.755402
1.601   9.647594
1.600   9.747944
1.599   9.627977
1.598   9.633149
1.597   9.648491
1.596   9.726238
1.595   9.605362
1.594   9.699971
1.593   9.623824
1.592   9.689955
1.591   9.642563
1.590   9.735310
1.589   9.665947
1.588   9.678328
1.587   9.653333
1.586   9.704738
1.585   9.616956
1.584   9.672226
1.583   9.604233
1.582   9.760677
1.581   9.656745
1.580   9.735234
1.579   9.749951
1.578   9.733935
1.577   9.619729
1.576   9.708411
1.575   9.632349
1.574   9.752146
1.573   9.687201
1.572   9.681896
1.571   9.711806
1.570   9.732443
1.569   9.703819
1.568   9.765066
1.567   9.652275
1.566   9.691831
1.565   9.685535
1.564   9.815340
1.563   9.698225
1.562   9.684945
1.561   9.735143
1.560   9.772510
1.559   9.691709
1.558   9.742764
1.557   9.682310
1.556   9.721213
1.555   9.739907
1.554   9.770334
1.553   9.753737
1.552   9.737545
1.551   9.708749
1.550   9.700191
1.549   9.709372
1.548   9.709503
1.547   9.667372
1.546   9.742022
1.545   9.701557
1.544   9.702645
1.543   9.645592
1.542   9.672473
1.541   9.702971
1.540   9.776288
1.539   9.730234
1.538   9.779867
1.537   9.779713
1.536   9.760864
1.535   9.697028
1.534   9.744955
1.533   9.661238
1.532   9.754699
1.531   9.768213
1.530   9.742832
1.529   9.701157
1.528   9.763448
1.527   9.754174
1.526   9.744804
1.525   9.725359
1.524   9.739624
1.523   9.738965
1.522   9.769420
1.521   9.798648
1.520   9.822267
1.519   9.754257
1.518   9.757172
1.517   9.740635
1.516   9.786676
1.515   9.751712
1.514   9.763869
1.513   9.802365
1.512   9.756537
1.511   9.722629
1.510   9.766577
1.509   9.776120
1.508   9.779102
1.507   9.757538
1.506   9.734613
1.505   9.764765
1.504   9.741174
1.503   9.689854
1.502   9.724308
1.501   9.704031
1.500   9.724702
1.499   9.749704
1.498   9.727889
1.497   9.748869
1.496   9.709743
1.495   9.711093
1.494   9.813965
1.493   9.788390
1.492   9.750257
1.491   9.790356
1.490   9.767382
1.489   9.766783
1.488   9.762533
1.487   9.769380
1.486   9.756149
1.485   9.719994
1.484   9.704931
1.483   9.728700
1.482   9.717423
1.481   9.754523
1.480   9.785710
1.479   9.785853
1.478   9.785905
1.477   9.766418
1.476   9.777547
1.475   9.792760
1.474   9.736416
1.473   9.755454
1.472   9.755242
1.471   9.774237
1.470   9.743716
1.469   9.738993
1.468   9.789721
1.467   9.745166
1.466   9.717089
1.465   9.798670
1.464   9.807933
1.463   9.822120
1.462   9.773314
1.461   9.787944
1.460   9.755206
1.459   9.774111
1.458   9.712972
1.457   9.775938
1.456   9.766642
1.455   9.810486
1.454   9.731103
1.453   9.774437
1.452   9.766413
1.451   9.794522
1.450   9.766154
1.449   9.804579
1.448   9.776314
1.447   9.793156
1.446   9.771611
1.445   9.843599
1.444   9.733842
1.443   9.768307
1.442   9.778469
1.441   9.848294
1.440   9.751439
1.439   9.842357
1.438   9.771826
1.437   9.796277
1.436   9.769991
1.435   9.767720
1.434   9.789664
1.433   9.838083
1.432   9.750113
1.431   9.793946
1.430   9.770304
1.429   9.842630
1.428   9.771521
1.427   9.747486
1.426   9.758156
1.425   9.815402
1.424   9.715866
1.423   9.787385
1.422   9.807429
1.421   9.809826
1.420   9.719900
1.419   9.867095
1.418   9.776283
1.417   9.802188
1.416   9.808266
1.415   9.831335
1.414   9.767682
1.413   9.861272
1.412   9.692416
1.411   9.882751
1.410   9.785050
1.409   9.845084
1.408   9.811107
1.407   9.878513
1.406   9.809685
1.405   9.825864
1.404   9.684821
1.403   9.763895
1.402   9.759850
1.401   9.838605
1.400   9.795553
1.399   9.843715
1.398   9.765556
1.397   9.844942
1.396   9.795778
1.395   9.817664
1.394   9.763310
1.393   9.896910
1.392   9.756641
1.391   9.875596
1.390   9.866026
1.389   9.829684
1.388   9.867031
1.387   9.918427
1.386   9.850536
1.385   9.955979
1.384   9.810244
1.383   9.877418
1.382   9.846846
1.381   9.835224
1.380   9.922230
1.379   9.974435
1.378   9.895993
1.377   9.876205
1.376   9.960424
1.375  10.153756
1.374   9.991553
1.373  10.186236
1.372  10.048290
1.371  10.250957
1.370   9.971623
1.369  10.115094
1.368  10.064228
1.367  10.243835
1.366  10.095166
1.365  10.228013
1.364  10.094205
1.363  10.128844
1.362   9.921085
1.361  10.155210
1.360  10.094272
1.359  10.235427
1.358  10.103264
1.357  10.286607
1.356  10.127810
1.355  10.014534
1.354  10.110705
1.353  10.136302
1.352  10.100921
1.351  10.238331
1.350  10.144725
1.349  10.186521
1.348  10.114485
1.347  10.241878
1.346  10.052719
1.345  10.269834
1.344  10.144482
1.343  10.169953
1.342  10.105681
1.341  10.201226
1.340  10.199723
1.339  10.110413
1.338  10.100412
1.337  10.308906
1.336  10.167889
1.335  10.234949
1.334  10.122293
1.333  10.190774
1.332  10.080305
1.331  10.283566
1.330  10.108408
1.329  10.186322
1.328  10.136182
1.327  10.299640
1.326  10.137316
1.325  10.196701
1.324  10.078901
1.323  10.205763
1.322  10.150025
1.321  10.239036
1.320  10.132689
1.319  10.151794
1.318  10.141020
1.317  10.234369
1.316  10.144861
1.315  10.153213
1.314  10.093706
1.313  10.224311
1.312  10.141927
1.311  10.222992
1.310  10.129550
1.309  10.206422
1.308  10.177766
1.307  10.217211
1.306  10.108595
1.305  10.221505
1.304  10.133742
1.303  10.195805
1.302  10.204428
1.301  10.232338
1.300  10.123273
1.299  10.213533
1.298  10.162871
1.297  10.212574
1.296  10.117630
1.295  10.207805
1.294  10.164247
1.293  10.210846
1.292  10.100467
1.291  10.224152
1.290  10.173206
1.289  10.232686
1.288  10.138521
1.287  10.229906
1.286  10.165157
1.285  10.190275
1.284  10.221362
1.283  10.273514
1.282  10.188044
1.281  10.208578
1.280  10.156806
1.279  10.251085
1.278  10.210455
1.277  10.274484
1.276  10.203692
1.275  10.280050
1.274  10.233067
1.273  10.219691
1.272  10.180316
1.271  10.168549
1.270  10.170322
1.269  10.221701
1.268  10.179174
1.267  10.207396
1.266  10.138500
1.265  10.228405
1.264  10.218813
1.263  10.254167
1.262  10.201519
1.261  10.260884
1.260  10.208393
1.259  10.244658
1.258  10.151129
1.257  10.173087
1.256  10.216100
1.255  10.202287
1.254  10.187709
1.253  10.202654
1.252  10.159418
1.251  10.246788
1.250  10.192899
1.249  10.233884
1.248  10.215922
1.247  10.231550
1.246  10.194919
1.245  10.206179
1.244  10.191815
1.243  10.218160
1.242  10.239537
1.241  10.285257
1.240  10.248825
1.239  10.310689
1.238  10.259714
1.237  10.187955
1.236  10.175511
1.235  10.174388
1.234  10.199309
1.233  10.246614
1.232  10.241789
1.231  10.277068
1.230  10.220971
1.229  10.175472
1.228  10.199270
1.227  10.237604
1.226  10.219140
1.225  10.288691
1.224  10.247063
1.223  10.209876
1.222  10.200147
1.221  10.208090
1.220  10.224548
1.219  10.220995
1.218  10.235013
1.217  10.246378
1.216  10.253032
1.215  10.236441
1.214  10.222792
1.213  10.256418
1.212  10.245685
1.211  10.250781
1.210  10.260907
1.209  10.249552
1.208  10.266021
1.207  10.187541
1.206  10.208383
1.205  10.257505
1.204  10.227435
1.203  10.189130
1.202  10.202297
1.201  10.244828
1.200  10.277533
1.199  10.232885
1.198  10.201617
1.197  10.174110
1.196  10.235073
1.195  10.204813
1.194  10.269204
1.193  10.256475
1.192  10.231364
1.191  10.204396
1.190  10.202929
1.189  10.293296
1.188  10.168302
1.187  10.171689
1.186  10.238887
1.185  10.167916
1.184  10.220341
1.183  10.219760
1.182  10.171073
1.181  10.163984
1.180  10.241789
1.179  10.245038
1.178  10.280282
1.177  10.236185
1.176  10.184225
1.175  10.215528
1.174  10.168869
1.173  10.208564
1.172  10.243258
1.171  10.235732
1.170  10.194403
1.169  10.187511
1.168  10.197421
1.167  10.156481
1.166  10.229002
1.165  10.177868
1.164  10.237706
1.163  10.144563
1.162  10.235120
1.161  10.113956
1.160  10.133724
1.159  10.102603
1.158  10.173424
1.157  10.122165
1.156  10.143431
1.155  10.097758
1.154  10.181663
1.153  10.132295
1.152  10.160775
1.151  10.116992
1.150  10.168376
1.149  10.074712
1.148  10.198406
1.147  10.114255
1.146  10.156400
1.145  10.041777
1.144  10.083193
1.143  10.028199
1.142  10.063885
1.141   9.977096
1.140  10.110215
1.139  10.047877
1.138  10.038535
1.137  10.063255
1.136  10.076405
1.135   9.961255
1.134  10.054292
1.133   9.940716
1.132   9.985369
1.131   9.953871
1.130   9.996164
1.129   9.997954
1.128  10.014504
1.127   9.894145
1.126   9.943582
1.125   9.894244
1.124   9.946702
1.123   9.856576
1.122   9.976625
1.121   9.814198
1.120   9.924063
1.119   9.846026
1.118   9.848679
1.117   9.843768
1.116   9.837910
1.115   9.773936
1.114   9.873489
1.113   9.787115
1.112   9.844115
1.111   9.716647
1.110   9.842480
1.109   9.662945
1.108   9.748953
1.107   9.707138
1.106   9.790549
1.105   9.701225
1.104   9.749043
1.103   9.579551
1.102   9.751180
1.101   9.631402
1.100   9.670345
1.099   9.623581
1.098   9.715334
1.097   9.595729
1.096   9.663410
1.095   9.581901
1.094   9.662731
1.093   9.577010
1.092   9.647384
1.091   9.524221
1.090   9.579145
1.089   9.500046
1.088   9.629229
1.087   9.567831
1.086   9.521534
1.085   9.491154
1.084   9.572242
1.083   9.478069
1.082   9.547049
1.081   9.422645
1.080   9.555932
1.079   9.383821
1.078   9.525517
1.077   9.431948
1.076   9.479757
1.075   9.456000
1.074   9.414732
1.073   9.396199
1.072   9.413452
1.071   9.426763
1.070   9.240377
1.069   9.400539
1.068   9.477315
1.067   9.307279
1.066   9.363552
1.065   9.277613
1.064   9.362782
1.063   9.299924
1.062   9.388691
1.061   9.305302
1.060   9.356335
1.059   9.246026
1.058   9.413050
1.057   9.236714
1.056   9.357386
1.055   9.233342
1.054   9.312540
1.053   9.258692
1.052   9.312599
1.051   9.184601
1.050   9.292164
1.049   9.208846
1.048   9.382567
1.047   9.166621
1.046   9.306422
1.045   9.241678
1.044   9.300070
1.043   9.186909
1.042   9.261753
1.041   9.217750
1.040   9.334644
1.039   9.253432
1.038   9.301898
1.037   9.220838
1.036   9.319088
1.035   9.261639
1.034   9.232333
1.033   9.262365
1.032   9.321325
1.031   9.157081
1.030   9.285937
1.029   9.227202
1.028   9.297585
1.027   9.215036
1.026   9.308975
1.025   9.251664
1.024   9.275161
1.023   9.270412
1.022   9.422816
1.021   9.233929
1.020   9.313461
1.019   9.261389
1.018   9.292168
1.017   9.284851
1.016   9.289265
1.015   9.317988
1.014   9.356983
1.013   9.295436
1.012   9.357518
1.011   9.263830
1.010   9.407806
1.009   9.330230
1.008   9.350640
1.007   9.321716
1.006   9.432995
1.005   9.381629
1.004   9.424526
1.003   9.374993
1.002   9.376200
1.001   9.422410
1.000   9.387706
0.999   9.352851
0.998   9.456716
0.997   9.398154
0.996   9.416190
0.995   9.382441
0.994   9.496180
0.993   9.471143
0.992   9.468547
0.991   9.373926
0.990   9.491261
0.989   9.473356
0.988   9.509093
0.987   9.471100
0.986   9.551951
0.985   9.457297
0.984   9.524963
0.983   9.499856
0.982   9.539186
0.981   9.560357
0.980   9.551019
0.979   9.546923
0.978   9.624818
0.977   9.605024
0.976   9.689473
0.975   9.592909
0.974   9.639482
0.973   9.639534
0.972   9.626826
0.971   9.649750
0.970   9.647994
0.969   9.648716
0.968   9.743934
0.967   9.669894
0.966   9.699637
0.965   9.680522
0.964   9.688114
0.963   9.690786
0.962   9.729580
0.961   9.732629
0.960   9.809095
0.959   9.765206
0.958   9.753753
0.957   9.824206
0.956   9.863294
0.955   9.801841
0.954   9.786851
0.953   9.810083
0.952   9.832023
0.951   9.823602
0.950   9.900029
0.949   9.885085
0.948   9.848677
0.947   9.825524
0.946   9.844750
0.945   9.872982
0.944   9.902399
0.943   9.878990
0.942   9.959581
0.941   9.935784
0.940   9.936446
0.939   9.937803
0.938   9.961778
0.937   9.995333
0.936   9.976092
0.935   9.990705
0.934   9.986457
0.933  10.008124
0.932  10.040166
0.931  10.000129
0.930   9.980129
0.929  10.040895
0.928  10.055088
0.927  10.059825
0.926  10.074439
0.925  10.087786
0.924  10.115780
0.923  10.114798
0.922  10.089872
0.921  10.135871
0.920  10.100524
0.919  10.128475
0.918  10.151576
0.917  10.161235
0.916  10.172976
0.915  10.157331
0.914  10.142772
0.913  10.200722
0.912  10.180653
0.911  10.182601
0.910  10.210842
0.909  10.209652
0.908  10.245909
0.907  10.237606
0.906  10.174979
0.905  10.270495
0.904  10.293814
0.903  10.278052
0.902  10.243757
0.901  10.310428
0.900  10.275093
0.899  10.263874
0.898  10.227351
0.897  10.301281
0.896  10.277481
0.895  10.295742
0.894  10.304410
0.893  10.329842
0.892  10.333326
0.891  10.338779
0.890  10.299949
0.889  10.360798
0.888  10.319514
0.887  10.398407
0.886  10.356717
0.885  10.340095
0.884  10.273415
0.883  10.360111
0.882  10.437756
0.881  10.442947
0.880  10.346465
0.879  10.382794
0.878  10.365059
0.877  10.369727
0.876  10.362615
0.875  10.442567
0.874  10.335367
0.873  10.415140
0.872  10.327921
0.871  10.459589
0.870  10.362825
0.869  10.432129
0.868  10.359940
0.867  10.339370
0.866  10.370434
0.865  10.365709
0.864  10.274513
0.863  10.369846
0.862  10.401606
0.861  10.396784
0.860  10.589699
0.859  10.624119
0.858  10.630264
0.857  10.628386
0.856  10.646039
0.855  10.662971
0.854  10.674155
0.853  10.668906
0.852  10.658450
0.851  10.669560
0.850  10.667844
0.849  10.671911
0.848  10.688740
0.847  10.688501
0.846  10.692757
0.845  10.702883
0.844  10.709282
0.843  10.713985
0.842  10.706581
0.841  10.712399
0.840  10.719204
0.839  10.731731
0.838  10.733052
0.837  10.742368
0.836  10.745412
0.835  10.747207
0.834  10.743757
0.833  10.762966
0.832  10.769561
0.831  10.765055
0.830  10.779383
0.829  10.786831
0.828  10.782432
0.827  10.791464
0.826  10.803835
0.825  10.803081
0.824  10.804444
0.823  10.799771
0.822  10.810095
0.821  10.800189
0.820  10.809723
0.819  10.826642
0.818  10.836120
0.817  10.829783
0.816  10.831313
0.815  10.849028
0.814  10.848864
0.813  10.851379
0.812  10.851490
0.811  10.859989
0.810  10.851742
0.809  10.855859
0.808  10.870103
0.807  10.867855
0.806  10.878692
0.805  10.881322
0.804  10.876970
0.803  10.891933
0.802  10.896927
0.801  10.884684
0.800  10.881570
0.799  10.886346
0.798  10.891548
0.797  10.901963
0.796  10.891303
0.795  10.872719
0.794  10.890502
0.793  10.880983
0.792  10.893039
0.791  10.893382
0.790  10.890265
0.789  10.888914
0.788  10.887573
0.787  10.887264
0.786  10.886083
0.785  10.892241
0.784  10.895200
0.783  10.891389
0.782  10.886791
0.781  10.887061
0.780  10.888620
0.779  10.879596
0.778  10.886883
0.777  10.883533
0.776  10.877563
0.775  10.874662
0.774  10.874374
0.773  10.872248
0.772  10.879400
0.771  10.865041
0.770  10.867045
0.769  10.862886
0.768  10.866308
0.767  10.854440
0.766  10.846030
0.765  10.843513
0.764  10.841490
0.763  10.842311
0.762  10.830942
0.761  10.820790
0.760  10.821841
0.759  10.825060
0.758  10.815311
0.757  10.802462
0.756  10.804943
0.755  10.793724
0.754  10.791349
0.753  10.782947
0.752  10.772736
0.751  10.771882
0.750  10.770296
0.749  10.758386
0.748  10.755237
0.747  10.749952
0.746  10.738770
0.745  10.726027
0.744  10.725014
0.743  10.713655
0.742  10.702424
0.741  10.702419
0.740  10.692902
0.739  10.684526
0.738  10.671247
0.737  10.671694
0.736  10.654919
0.735  10.644982
0.734  10.641600
0.733  10.631828
0.732  10.622977
0.731  10.612453
0.730  10.603422
0.729  10.591893
0.728  10.584165
0.727  10.575440
0.726  10.562124
0.725  10.551893
0.724  10.545749
0.723  10.533988
0.722  10.529840
0.721  10.517164
0.720  10.499984
0.719  10.494750
0.718  10.487238
0.717  10.476950
0.716  10.467813
0.715  10.457302
0.714  10.439989
0.713  10.435411
0.712  10.425250
0.711  10.412877
0.710  10.407707
0.709  10.399182
0.708  10.383060
0.707  10.373446
0.706  10.366336
0.705  10.357227
0.704  10.350921
0.703  10.340208
0.702  10.325688
0.701  10.318050
0.700  10.309303
0.699  10.299190
0.698  10.289432
0.697  10.278592
0.696  10.277202
0.695  10.263336
0.694  10.254024
0.693  10.243817
0.692  10.230932
0.691  10.227325
0.690  10.221241
0.689  10.208025
0.688  10.199020
0.687  10.195228
0.686  10.186757
0.685  10.181622
0.684  10.172454
0.683  10.163419
0.682  10.151890
0.681  10.144798
0.680  10.142000
0.679  10.136007
0.678  10.126863
0.677  10.122312
0.676  10.111269
0.675  10.101472
0.674  10.095032
0.673  10.087301
0.672  10.078189
0.671  10.076796
0.670  10.073236
0.669  10.067918
0.668  10.061596
0.667  10.053091
0.666  10.046098
0.665  10.041373
0.664  10.035802
0.663  10.029980
0.662  10.022592
0.661  10.015579
0.660  10.008003
0.659  10.005085
0.658  10.003907
0.657   9.996580
0.656   9.992558
0.655   9.987052
0.654   9.980693
0.653   9.977461
0.652   9.969413
0.651   9.964358
0.650   9.961535
0.649   9.956975
0.648   9.951139
0.647   9.948968
0.646   9.943128
0.645   9.939133
0.644   9.936853
0.643   9.929832
0.642   9.926509
0.641   9.922815
0.640   9.916974
0.639   9.914382
0.638   9.909700
0.637   9.902698
0.636   9.899694
0.635   9.895018
0.634   9.889344
0.633   9.888516
0.632   9.885180
0.631   9.876741
0.630   9.868767
0.629   9.866470
0.628   9.863810
0.627   9.860520
0.626   9.857134
0.625   9.849687
0.624   9.845614
0.623   9.837962
0.622   9.829543
0.621   9.823148
0.620   9.817749
0.619   9.812821
0.618   9.806705
0.617   9.801348
0.616   9.795084
0.615   9.788283
0.614   9.781902
0.613   9.772874
0.612   9.764278
0.611   9.756960
0.610   9.746594
0.609   9.737255
0.608   9.727795
0.607   9.715791
0.606   9.702232
0.605   9.688077
0.604   9.677496
0.603   9.667549
0.602   9.653486
0.601   9.634878
0.600   9.618454
0.599   9.606793
0.598   9.589920
0.597   9.571247
0.596   9.551594
0.595   9.533460
0.594   9.511697
0.593   9.488256
0.592   9.465746
0.591   9.441209
0.590   9.414241
0.589   9.386432
0.588   9.358488
0.587   9.329638
0.586   9.297440
0.585   9.264353
0.584   9.233276
0.583   9.199703
0.582   9.164879
0.581   9.127367
0.580   9.090691
0.579   9.052163
0.578   9.012507
0.577   8.972907
0.576   8.932801
0.575   8.892670
0.574   8.849701
0.573   8.807773
0.572   8.766099
0.571   8.723528
0.570   8.679341
0.569   8.641611
0.568   8.616661
0.567   8.579586
0.566   8.536213
0.565   8.495842
0.564   8.455905
0.563   8.414925
0.562   8.373826
0.561   8.341173
0.560   8.308271
0.559   8.269689
0.558   8.235496
0.557   8.202906
0.556   8.169623
0.555   8.134412
0.554   8.103593
0.553   8.074488
0.552   8.047214
0.551   8.018693
0.550   7.991654
0.549   7.966858
0.548   7.941644
0.547   7.920488
0.546   7.897898
0.545   7.878629
0.544   7.860516
0.543   7.840316
0.542   7.824520
0.541   7.807452
0.540   7.790274
0.539   7.773468
0.538   7.758160
0.537   7.744439
0.536   7.732520
0.535   7.718319
0.534   7.704817
0.533   7.688259
0.532   7.676047
0.531   7.665101
0.530   7.654823
0.529   7.644159
0.528   7.632313
0.527   7.621529
0.526   7.613438
0.525   7.601473
0.524   7.590724
0.523   7.579538
0.522   7.569192
0.521   7.562990
0.520   7.550230
0.519   7.541117
0.518   7.530636
0.517   7.519753
0.516   7.510105
0.515   7.498903
0.514   7.487780
0.513   7.479665
0.512   7.466161
0.511   7.458921
0.510   7.450259
0.509   7.441363
0.508   7.429998
0.507   7.425901
0.506   7.419348
0.505   7.408639
0.504   7.404527
0.503   7.401995
0.502   7.392888
0.501   7.385346
0.500   7.382350
0.499   7.369799
0.498   7.362708
0.497   7.353770
0.496   7.346781
0.495   7.342167
0.494   7.337658
0.493   7.324356
0.492   7.321423
0.491   7.309681
0.490   7.310648
0.489   7.303406
0.488   7.295803
0.487   7.290235
0.486   7.286585
0.485   7.280653
0.484   7.275015
0.483   7.267358
0.482   7.258637
0.481   7.245907
0.480   7.233997
0.479   7.225762
0.478   7.215588
0.477   7.203202
0.476   7.192104
0.475   7.186847
0.474   7.181822
0.473   7.174975
0.472   7.162424
0.471   7.158856
0.470   7.151232
0.469   7.146580
0.468   7.139637
0.467   7.134493
0.466   7.128556
0.465   7.121005
0.464   7.115112
0.463   7.107231
0.462   7.103682
0.461   7.093834
0.460   7.089349
0.459   7.080526
0.458   7.075724
0.457   7.067199
0.456   7.061408
0.455   7.057183
0.454   7.052361
0.453   7.045842
0.452   7.037443
0.451   7.030576
0.450   7.025375
0.449   7.017088
0.448   7.007702
0.447   7.003020
0.446   7.001155
0.445   6.992349
0.444   6.984599
0.443   6.976931
0.442   6.963563
0.441   6.957332
0.440   6.944901
0.439   6.936497
0.438   6.923169
0.437   6.914881
0.436   6.907011
0.435   6.895630
0.434   6.883892
0.433   6.873256
0.432   6.865808
0.431   6.854519
0.430   6.845028
0.429   6.840229
0.428   6.827486
0.427   6.815444
0.426   6.805737
0.425   6.794907
0.424   6.786863
0.423   6.782302
0.422   6.772575
0.421   6.762392
0.420   6.755677
0.419   6.745205
0.418   6.739484
0.417   6.734702
0.416   6.727335
0.415   6.717214
0.414   6.711634
0.413   6.704860
0.412   6.695209
0.411   6.688518
0.410   6.686982
0.409   6.681769
0.408   6.675773
0.407   6.669064
0.406   6.662550
0.405   6.657152
0.404   6.649528
0.403   6.642268
0.402   6.636356
0.401   6.632410
0.400   6.626780
